Unit Serial No : 240-LV0P465-EU
Integration Time : 240 ms
Time Average: 11
Binning Average: 0
FFT Smoothing: 0%
Project Name : Project Name
Sample Name : Sample Name
Measurement No : 1
Measurement Time : 09/18/2007   10:13:18

Wavelength(nm)	Wavenumber(1/cm)	Intensity(Counts)
350.0000      	28571.4286    	2954.54541    
350.5000      	28530.6705    	2869.45459    
351.0000      	28490.0285    	2803.18188    
351.5000      	28449.5021    	2898.90918    
352.0000      	28409.0909    	2760.18188    
352.5000      	28368.7943    	2773.09082    
353.0000      	28328.6119    	2589.54541    
353.5000      	28288.5431    	2812.72729    
354.0000      	28248.5876    	2423.36353    
354.5000      	28208.7447    	2443.18188    
355.0000      	28169.0141    	2627.00000    
355.5000      	28129.3952    	2678.27271    
356.0000      	28089.8876    	2226.90918    
356.5000      	28050.4909    	2539.72729    
357.0000      	28011.2045    	2431.90918    
357.5000      	27972.0280    	2550.90918    
358.0000      	27932.9609    	2609.00000    
358.5000      	27894.0028    	3213.27271    
359.0000      	27855.1532    	2574.27271    
359.5000      	27816.4117    	2745.09082    
360.0000      	27777.7778    	2577.27271    
360.5000      	27739.2510    	2665.45459    
361.0000      	27700.8310    	2611.54541    
361.5000      	27662.5173    	3041.63647    
362.0000      	27624.3094    	2697.63647    
362.5000      	27586.2069    	2884.90918    
363.0000      	27548.2094    	2935.36353    
363.5000      	27510.3164    	2515.54541    
364.0000      	27472.5275    	2230.09082    
364.5000      	27434.8422    	2400.27271    
365.0000      	27397.2603    	2523.81812    
365.5000      	27359.7811    	2784.36353    
366.0000      	27322.4044    	2821.27271    
366.5000      	27285.1296    	2666.72729    
367.0000      	27247.9564    	2636.54541    
367.5000      	27210.8844    	3066.45459    
368.0000      	27173.9130    	2604.90918    
368.5000      	27137.0421    	3084.45459    
369.0000      	27100.2710    	2628.81812    
369.5000      	27063.5995    	2607.27271    
370.0000      	27027.0270    	3033.00000    
370.5000      	26990.5533    	2337.63647    
371.0000      	26954.1779    	2745.81812    
371.5000      	26917.9004    	2464.36353    
372.0000      	26881.7204    	2527.45459    
372.5000      	26845.6376    	2756.00000    
373.0000      	26809.6515    	2499.36353    
373.5000      	26773.7617    	2775.63647    
374.0000      	26737.9679    	3129.36353    
374.5000      	26702.2697    	2661.54541    
375.0000      	26666.6667    	2520.18188    
375.5000      	26631.1585    	2663.72729    
376.0000      	26595.7447    	2633.81812    
376.5000      	26560.4250    	2439.81812    
377.0000      	26525.1989    	2687.63647    
377.5000      	26490.0662    	2695.90918    
378.0000      	26455.0265    	2586.90918    
378.5000      	26420.0793    	2647.36353    
379.0000      	26385.2243    	2610.54541    
379.5000      	26350.4611    	2652.45459    
380.0000      	26315.7895    	2544.09082    
380.5000      	26281.2089    	2610.45459    
381.0000      	26246.7192    	2621.18188    
381.5000      	26212.3198    	2434.27271    
382.0000      	26178.0105    	2674.18188    
382.5000      	26143.7908    	2800.18188    
383.0000      	26109.6606    	2867.54541    
383.5000      	26075.6193    	2560.00000    
384.0000      	26041.6667    	3118.18188    
384.5000      	26007.8023    	2554.54541    
385.0000      	25974.0260    	2569.45459    
385.5000      	25940.3372    	2532.72729    
386.0000      	25906.7358    	2363.36353    
386.5000      	25873.2212    	2647.09082    
387.0000      	25839.7933    	2672.90918    
387.5000      	25806.4516    	2521.72729    
388.0000      	25773.1959    	2792.18188    
388.5000      	25740.0257    	2657.36353    
389.0000      	25706.9409    	2606.18188    
389.5000      	25673.9409    	2736.18188    
390.0000      	25641.0256    	2608.72729    
390.5000      	25608.1946    	2565.18188    
391.0000      	25575.4476    	2665.00000    
391.5000      	25542.7842    	2980.54541    
392.0000      	25510.2041    	2518.81812    
392.5000      	25477.7070    	2468.81812    
393.0000      	25445.2926    	2760.36353    
393.5000      	25412.9606    	2419.72729    
394.0000      	25380.7107    	3019.18188    
394.5000      	25348.5425    	2460.36353    
395.0000      	25316.4557    	2762.27271    
395.5000      	25284.4501    	2649.27271    
396.0000      	25252.5253    	3030.45459    
396.5000      	25220.6810    	2650.54541    
397.0000      	25188.9169    	2840.09082    
397.5000      	25157.2327    	2793.63647    
398.0000      	25125.6281    	2704.09082    
398.5000      	25094.1029    	2476.18188    
399.0000      	25062.6566    	2754.90918    
399.5000      	25031.2891    	3002.18188    
400.0000      	25000.0000    	2868.90918    
400.5000      	24968.7890    	2584.09082    
401.0000      	24937.6559    	2532.18188    
401.5000      	24906.6002    	2787.90918    
402.0000      	24875.6219    	2805.36353    
402.5000      	24844.7205    	2727.81812    
403.0000      	24813.8958    	2333.45459    
403.5000      	24783.1475    	2610.81812    
404.0000      	24752.4752    	2660.54541    
404.5000      	24721.8789    	2955.90918    
405.0000      	24691.3580    	2709.45459    
405.5000      	24660.9125    	2604.63647    
406.0000      	24630.5419    	2529.54541    
406.5000      	24600.2460    	2467.00000    
407.0000      	24570.0246    	2744.72729    
407.5000      	24539.8773    	2466.54541    
408.0000      	24509.8039    	2393.81812    
408.5000      	24479.8042    	2469.90918    
409.0000      	24449.8778    	2396.72729    
409.5000      	24420.0244    	2674.00000    
410.0000      	24390.2439    	2665.90918    
410.5000      	24360.5359    	2813.45459    
411.0000      	24330.9002    	2781.36353    
411.5000      	24301.3366    	2781.63647    
412.0000      	24271.8447    	2907.18188    
412.5000      	24242.4242    	2517.09082    
413.0000      	24213.0751    	2808.63647    
413.5000      	24183.7969    	2687.09082    
414.0000      	24154.5894    	2598.27271    
414.5000      	24125.4524    	2510.54541    
415.0000      	24096.3855    	2354.00000    
415.5000      	24067.3887    	2406.36353    
416.0000      	24038.4615    	2770.63647    
416.5000      	24009.6038    	2762.45459    
417.0000      	23980.8153    	2534.72729    
417.5000      	23952.0958    	2505.81812    
418.0000      	23923.4450    	2811.63647    
418.5000      	23894.8626    	2650.36353    
419.0000      	23866.3484    	2651.00000    
419.5000      	23837.9023    	2449.00000    
420.0000      	23809.5238    	2614.72729    
420.5000      	23781.2128    	2619.72729    
421.0000      	23752.9691    	2565.00000    
421.5000      	23724.7924    	2515.45459    
422.0000      	23696.6825    	2731.63647    
422.5000      	23668.6391    	2625.81812    
423.0000      	23640.6619    	2755.18188    
423.5000      	23612.7509    	2458.00000    
424.0000      	23584.9057    	2707.27271    
424.5000      	23557.1260    	2878.18188    
425.0000      	23529.4118    	2483.45459    
425.5000      	23501.7626    	2306.54541    
426.0000      	23474.1784    	2554.27271    
426.5000      	23446.6589    	2534.09082    
427.0000      	23419.2037    	2632.09082    
427.5000      	23391.8129    	2612.36353    
428.0000      	23364.4860    	2498.54541    
428.5000      	23337.2229    	2602.36353    
429.0000      	23310.0233    	3167.90918    
429.5000      	23282.8871    	2821.27271    
430.0000      	23255.8140    	2663.09082    
430.5000      	23228.8037    	2659.00000    
431.0000      	23201.8561    	3062.90918    
431.5000      	23174.9710    	2577.27271    
432.0000      	23148.1481    	2418.18188    
432.5000      	23121.3873    	2647.90918    
433.0000      	23094.6882    	2341.72729    
433.5000      	23068.0507    	2648.45459    
434.0000      	23041.4747    	3057.54541    
434.5000      	23014.9597    	2585.90918    
435.0000      	22988.5057    	2600.54541    
435.5000      	22962.1125    	3054.72729    
436.0000      	22935.7798    	2860.81812    
436.5000      	22909.5074    	2608.36353    
437.0000      	22883.2952    	2585.45459    
437.5000      	22857.1429    	2689.18188    
438.0000      	22831.0502    	2598.18188    
438.5000      	22805.0171    	2477.72729    
439.0000      	22779.0433    	2525.54541    
439.5000      	22753.1286    	2437.81812    
440.0000      	22727.2727    	3281.18188    
440.5000      	22701.4756    	3042.27271    
441.0000      	22675.7370    	3477.18188    
441.5000      	22650.0566    	2727.63647    
442.0000      	22624.4344    	2729.63647    
442.5000      	22598.8701    	3335.54541    
443.0000      	22573.3634    	3108.18188    
443.5000      	22547.9143    	3117.81812    
444.0000      	22522.5225    	3122.81812    
444.5000      	22497.1879    	3175.63647    
445.0000      	22471.9101    	3300.45459    
445.5000      	22446.6891    	2679.18188    
446.0000      	22421.5247    	2884.18188    
446.5000      	22396.4166    	3348.72729    
447.0000      	22371.3647    	3182.72729    
447.5000      	22346.3687    	3359.72729    
448.0000      	22321.4286    	3400.63647    
448.5000      	22296.5440    	3163.81812    
449.0000      	22271.7149    	3529.90918    
449.5000      	22246.9410    	4000.27271    
450.0000      	22222.2222    	3629.09082    
450.5000      	22197.5583    	3871.18188    
451.0000      	22172.9490    	3936.00000    
451.5000      	22148.3942    	3928.09082    
452.0000      	22123.8938    	3800.45459    
452.5000      	22099.4475    	3809.00000    
453.0000      	22075.0552    	4024.54541    
453.5000      	22050.7166    	4016.54541    
454.0000      	22026.4317    	4009.09082    
454.5000      	22002.2002    	4108.36377    
455.0000      	21978.0220    	4423.00000    
455.5000      	21953.8968    	4617.54541    
456.0000      	21929.8246    	4789.00000    
456.5000      	21905.8050    	5052.00000    
457.0000      	21881.8381    	5452.90918    
457.5000      	21857.9235    	5436.54541    
458.0000      	21834.0611    	5507.45459    
458.5000      	21810.2508    	5246.72705    
459.0000      	21786.4924    	5824.27295    
459.5000      	21762.7856    	5356.27295    
460.0000      	21739.1304    	5659.90918    
460.5000      	21715.5266    	5922.54541    
461.0000      	21691.9740    	6262.90918    
461.5000      	21668.4724    	6774.36377    
462.0000      	21645.0216    	6974.63623    
462.5000      	21621.6216    	6808.36377    
463.0000      	21598.2721    	7048.27295    
463.5000      	21574.9730    	7133.63623    
464.0000      	21551.7241    	7142.09082    
464.5000      	21528.5253    	7720.54541    
465.0000      	21505.3763    	8143.72705    
465.5000      	21482.2771    	7853.54541    
466.0000      	21459.2275    	8645.18164    
466.5000      	21436.2272    	8071.27295    
467.0000      	21413.2762    	8449.00000    
467.5000      	21390.3743    	9067.36328    
468.0000      	21367.5214    	8835.81836    
468.5000      	21344.7172    	8871.27246    
469.0000      	21321.9616    	9704.81836    
469.5000      	21299.2545    	9401.72754    
470.0000      	21276.5957    	9250.36328    
470.5000      	21253.9851    	9883.63672    
471.0000      	21231.4225    	9712.72754    
471.5000      	21208.9077    	9154.09082    
472.0000      	21186.4407    	9202.00000    
472.5000      	21164.0212    	9604.18164    
473.0000      	21141.6490    	9775.90918    
473.5000      	21119.3242    	9388.90918    
474.0000      	21097.0464    	9933.00000    
474.5000      	21074.8156    	9636.81836    
475.0000      	21052.6316    	9228.09082    
475.5000      	21030.4942    	9684.00000    
476.0000      	21008.4034    	9419.36328    
476.5000      	20986.3589    	9451.00000    
477.0000      	20964.3606    	9615.00000    
477.5000      	20942.4084    	9681.27246    
478.0000      	20920.5021    	9800.72754    
478.5000      	20898.6416    	9520.54590    
479.0000      	20876.8267    	9293.00000    
479.5000      	20855.0574    	9232.09082    
480.0000      	20833.3333    	9163.27246    
480.5000      	20811.6545    	9035.63672    
481.0000      	20790.0208    	9082.54590    
481.5000      	20768.4320    	8554.90918    
482.0000      	20746.8880    	8567.27246    
482.5000      	20725.3886    	8842.54590    
483.0000      	20703.9337    	8410.36328    
483.5000      	20682.5233    	8361.81836    
484.0000      	20661.1570    	8118.45459    
484.5000      	20639.8349    	7841.81836    
485.0000      	20618.5567    	7803.27295    
485.5000      	20597.3223    	7819.45459    
486.0000      	20576.1317    	7665.81836    
486.5000      	20554.9846    	6896.45459    
487.0000      	20533.8809    	7035.90918    
487.5000      	20512.8205    	6985.00000    
488.0000      	20491.8033    	7480.63623    
488.5000      	20470.8291    	6715.18164    
489.0000      	20449.8978    	6580.27295    
489.5000      	20429.0092    	6815.00000    
490.0000      	20408.1633    	6701.45459    
490.5000      	20387.3598    	6438.63623    
491.0000      	20366.5988    	6274.45459    
491.5000      	20345.8800    	6494.27295    
492.0000      	20325.2033    	6076.63623    
492.5000      	20304.5685    	5891.72705    
493.0000      	20283.9757    	6259.18164    
493.5000      	20263.4245    	5514.36377    
494.0000      	20242.9150    	5688.81836    
494.5000      	20222.4469    	5574.81836    
495.0000      	20202.0202    	5372.36377    
495.5000      	20181.6347    	5068.00000    
496.0000      	20161.2903    	5244.90918    
496.5000      	20140.9869    	5113.72705    
497.0000      	20120.7243    	4916.36377    
497.5000      	20100.5025    	5208.45459    
498.0000      	20080.3213    	4628.09082    
498.5000      	20060.1805    	4497.36377    
499.0000      	20040.0802    	5081.63623    
499.5000      	20020.0200    	4676.36377    
500.0000      	20000.0000    	4322.27295    
500.5000      	19980.0200    	4393.18164    
501.0000      	19960.0798    	4480.45459    
501.5000      	19940.1795    	4145.63623    
502.0000      	19920.3187    	4303.00000    
502.5000      	19900.4975    	4023.09082    
503.0000      	19880.7157    	3771.72729    
503.5000      	19860.9732    	4004.81812    
504.0000      	19841.2698    	3842.27271    
504.5000      	19821.6056    	4133.27295    
505.0000      	19801.9802    	3899.27271    
505.5000      	19782.3937    	3732.81812    
506.0000      	19762.8458    	3735.72729    
506.5000      	19743.3366    	3415.18188    
507.0000      	19723.8659    	3664.27271    
507.5000      	19704.4335    	3823.18188    
508.0000      	19685.0394    	3864.81812    
508.5000      	19665.6834    	3316.27271    
509.0000      	19646.3654    	3503.27271    
509.5000      	19627.0854    	3892.63647    
510.0000      	19607.8431    	4103.54541    
510.5000      	19588.6386    	3436.54541    
511.0000      	19569.4716    	3301.18188    
511.5000      	19550.3421    	3602.00000    
512.0000      	19531.2500    	3728.81812    
512.5000      	19512.1951    	3021.36353    
513.0000      	19493.1774    	3060.00000    
513.5000      	19474.1967    	3048.09082    
514.0000      	19455.2529    	3238.36353    
514.5000      	19436.3460    	3067.36353    
515.0000      	19417.4757    	2980.63647    
515.5000      	19398.6421    	3361.90918    
516.0000      	19379.8450    	2903.00000    
516.5000      	19361.0842    	3057.54541    
517.0000      	19342.3598    	2860.18188    
517.5000      	19323.6715    	3149.45459    
518.0000      	19305.0193    	2850.63647    
518.5000      	19286.4031    	2727.18188    
519.0000      	19267.8227    	2613.54541    
519.5000      	19249.2782    	2852.18188    
520.0000      	19230.7692    	2860.00000    
520.5000      	19212.2959    	2879.72729    
521.0000      	19193.8580    	2929.72729    
521.5000      	19175.4554    	2743.54541    
522.0000      	19157.0881    	2903.54541    
522.5000      	19138.7560    	2920.00000    
523.0000      	19120.4589    	2957.00000    
523.5000      	19102.1968    	2758.00000    
524.0000      	19083.9695    	2775.45459    
524.5000      	19065.7769    	2716.72729    
525.0000      	19047.6190    	2861.63647    
525.5000      	19029.4957    	2517.54541    
526.0000      	19011.4068    	2517.81812    
526.5000      	18993.3523    	3170.72729    
527.0000      	18975.3321    	2588.72729    
527.5000      	18957.3460    	2262.63647    
528.0000      	18939.3939    	2698.54541    
528.5000      	18921.4759    	2913.54541    
529.0000      	18903.5917    	2638.09082    
529.5000      	18885.7413    	2710.63647    
530.0000      	18867.9245    	2605.00000    
530.5000      	18850.1414    	2446.81812    
531.0000      	18832.3917    	2785.63647    
531.5000      	18814.6754    	2675.54541    
532.0000      	18796.9925    	2779.18188    
532.5000      	18779.3427    	2608.00000    
533.0000      	18761.7261    	2614.90918    
533.5000      	18744.1425    	2482.81812    
534.0000      	18726.5918    	2699.63647    
534.5000      	18709.0739    	2501.36353    
535.0000      	18691.5888    	2910.09082    
535.5000      	18674.1363    	2519.27271    
536.0000      	18656.7164    	2800.00000    
536.5000      	18639.3290    	2529.45459    
537.0000      	18621.9739    	2579.54541    
537.5000      	18604.6512    	2596.45459    
538.0000      	18587.3606    	2547.54541    
538.5000      	18570.1021    	2493.90918    
539.0000      	18552.8757    	2556.36353    
539.5000      	18535.6812    	2704.00000    
540.0000      	18518.5185    	2304.45459    
540.5000      	18501.3876    	2388.63647    
541.0000      	18484.2884    	2672.18188    
541.5000      	18467.2207    	2548.45459    
542.0000      	18450.1845    	2777.54541    
542.5000      	18433.1797    	2329.00000    
543.0000      	18416.2063    	2640.18188    
543.5000      	18399.2640    	2666.72729    
544.0000      	18382.3529    	2456.90918    
544.5000      	18365.4729    	2404.00000    
545.0000      	18348.6239    	2804.54541    
545.5000      	18331.8057    	2578.00000    
546.0000      	18315.0183    	2901.09082    
546.5000      	18298.2617    	2481.90918    
547.0000      	18281.5356    	2516.00000    
547.5000      	18264.8402    	2580.72729    
548.0000      	18248.1752    	2606.36353    
548.5000      	18231.5406    	2383.90918    
549.0000      	18214.9362    	2681.81812    
549.5000      	18198.3621    	2753.63647    
550.0000      	18181.8182    	2528.18188    
550.5000      	18165.3043    	2663.72729    
551.0000      	18148.8203    	2279.90918    
551.5000      	18132.3663    	2551.54541    
552.0000      	18115.9420    	2375.18188    
552.5000      	18099.5475    	2455.18188    
553.0000      	18083.1826    	2281.54541    
553.5000      	18066.8473    	3117.63647    
554.0000      	18050.5415    	2774.00000    
554.5000      	18034.2651    	2586.90918    
555.0000      	18018.0180    	2362.27271    
555.5000      	18001.8002    	2417.72729    
556.0000      	17985.6115    	2329.81812    
556.5000      	17969.4519    	2286.09082    
557.0000      	17953.3214    	2435.09082    
557.5000      	17937.2197    	2479.72729    
558.0000      	17921.1470    	2534.36353    
558.5000      	17905.1030    	2451.90918    
559.0000      	17889.0877    	2555.90918    
559.5000      	17873.1010    	3008.81812    
560.0000      	17857.1429    	2775.54541    
560.5000      	17841.2132    	2481.36353    
561.0000      	17825.3119    	2766.45459    
561.5000      	17809.4390    	2235.72729    
562.0000      	17793.5943    	2714.54541    
562.5000      	17777.7778    	2730.09082    
563.0000      	17761.9893    	2543.81812    
563.5000      	17746.2289    	2272.63647    
