Unit Serial No : 240-LV0P465-EU
Integration Time : 60 ms
Time Average: 11
Binning Average: 0
FFT Smoothing: 0%
Project Name : Project Name
Sample Name : Sample Name
Measurement No : 1
Measurement Time : 09/18/2007   10:23:23

Wavelength(nm)	Wavenumber(1/cm)	Intensity(Counts)
350.0000      	28571.4286    	1576.45459    
350.5000      	28530.6705    	1555.36365    
351.0000      	28490.0285    	1531.72729    
351.5000      	28449.5021    	1541.27271    
352.0000      	28409.0909    	1506.00000    
352.5000      	28368.7943    	1514.18176    
353.0000      	28328.6119    	1478.63635    
353.5000      	28288.5431    	1544.54541    
354.0000      	28248.5876    	1436.45459    
354.5000      	28208.7447    	1426.00000    
355.0000      	28169.0141    	1466.81824    
355.5000      	28129.3952    	1503.54541    
356.0000      	28089.8876    	1397.54541    
356.5000      	28050.4909    	1478.18176    
357.0000      	28011.2045    	1463.72729    
357.5000      	27972.0280    	1451.72729    
358.0000      	27932.9609    	1475.72729    
358.5000      	27894.0028    	1642.36365    
359.0000      	27855.1532    	1498.45459    
359.5000      	27816.4117    	1527.00000    
360.0000      	27777.7778    	1455.72729    
360.5000      	27739.2510    	1474.81824    
361.0000      	27700.8310    	1489.90906    
361.5000      	27662.5173    	1591.90906    
362.0000      	27624.3094    	1533.18176    
362.5000      	27586.2069    	1564.45459    
363.0000      	27548.2094    	1562.90906    
363.5000      	27510.3164    	1444.81824    
364.0000      	27472.5275    	1391.27271    
364.5000      	27434.8422    	1439.90906    
365.0000      	27397.2603    	1476.09094    
365.5000      	27359.7811    	1523.81824    
366.0000      	27322.4044    	1508.27271    
366.5000      	27285.1296    	1486.72729    
367.0000      	27247.9564    	1488.45459    
367.5000      	27210.8844    	1614.54541    
368.0000      	27173.9130    	1489.81824    
368.5000      	27137.0421    	1588.27271    
369.0000      	27100.2710    	1485.27271    
369.5000      	27063.5995    	1491.00000    
370.0000      	27027.0270    	1604.45459    
370.5000      	26990.5533    	1423.00000    
371.0000      	26954.1779    	1521.63635    
371.5000      	26917.9004    	1462.72729    
372.0000      	26881.7204    	1470.09094    
372.5000      	26845.6376    	1545.90906    
373.0000      	26809.6515    	1460.36365    
373.5000      	26773.7617    	1523.09094    
374.0000      	26737.9679    	1586.63635    
374.5000      	26702.2697    	1491.09094    
375.0000      	26666.6667    	1443.63635    
375.5000      	26631.1585    	1506.18176    
376.0000      	26595.7447    	1507.90906    
376.5000      	26560.4250    	1426.81824    
377.0000      	26525.1989    	1496.09094    
377.5000      	26490.0662    	1526.36365    
378.0000      	26455.0265    	1485.81824    
378.5000      	26420.0793    	1487.54541    
379.0000      	26385.2243    	1490.81824    
379.5000      	26350.4611    	1499.36365    
380.0000      	26315.7895    	1476.18176    
380.5000      	26281.2089    	1475.81824    
381.0000      	26246.7192    	1505.36365    
381.5000      	26212.3198    	1467.81824    
382.0000      	26178.0105    	1500.54541    
382.5000      	26143.7908    	1540.18176    
383.0000      	26109.6606    	1533.09094    
383.5000      	26075.6193    	1467.63635    
384.0000      	26041.6667    	1618.00000    
384.5000      	26007.8023    	1478.63635    
385.0000      	25974.0260    	1453.81824    
385.5000      	25940.3372    	1457.45459    
386.0000      	25906.7358    	1428.45459    
386.5000      	25873.2212    	1479.18176    
387.0000      	25839.7933    	1500.63635    
387.5000      	25806.4516    	1448.00000    
388.0000      	25773.1959    	1520.18176    
388.5000      	25740.0257    	1474.81824    
389.0000      	25706.9409    	1485.45459    
389.5000      	25673.9409    	1509.72729    
390.0000      	25641.0256    	1485.72729    
390.5000      	25608.1946    	1482.45459    
391.0000      	25575.4476    	1507.54541    
391.5000      	25542.7842    	1585.54541    
392.0000      	25510.2041    	1457.09094    
392.5000      	25477.7070    	1451.18176    
393.0000      	25445.2926    	1540.18176    
393.5000      	25412.9606    	1424.09094    
394.0000      	25380.7107    	1569.72729    
394.5000      	25348.5425    	1440.81824    
395.0000      	25316.4557    	1532.81824    
395.5000      	25284.4501    	1501.09094    
396.0000      	25252.5253    	1619.00000    
396.5000      	25220.6810    	1478.45459    
397.0000      	25188.9169    	1527.63635    
397.5000      	25157.2327    	1515.45459    
398.0000      	25125.6281    	1514.18176    
398.5000      	25094.1029    	1451.81824    
399.0000      	25062.6566    	1521.18176    
399.5000      	25031.2891    	1585.81824    
400.0000      	25000.0000    	1537.09094    
400.5000      	24968.7890    	1454.45459    
401.0000      	24937.6559    	1494.09094    
401.5000      	24906.6002    	1528.18176    
402.0000      	24875.6219    	1602.18176    
402.5000      	24844.7205    	1512.09094    
403.0000      	24813.8958    	1384.54541    
403.5000      	24783.1475    	1493.63635    
404.0000      	24752.4752    	1507.81824    
404.5000      	24721.8789    	1576.63635    
405.0000      	24691.3580    	1505.18176    
405.5000      	24660.9125    	1466.27271    
406.0000      	24630.5419    	1458.36365    
406.5000      	24600.2460    	1454.27271    
407.0000      	24570.0246    	1514.45459    
407.5000      	24539.8773    	1462.09094    
408.0000      	24509.8039    	1432.54541    
408.5000      	24479.8042    	1438.27271    
409.0000      	24449.8778    	1445.63635    
409.5000      	24420.0244    	1501.27271    
410.0000      	24390.2439    	1499.18176    
410.5000      	24360.5359    	1577.45459    
411.0000      	24330.9002    	1517.18176    
411.5000      	24301.3366    	1516.45459    
412.0000      	24271.8447    	1558.72729    
412.5000      	24242.4242    	1469.18176    
413.0000      	24213.0751    	1545.90906    
413.5000      	24183.7969    	1503.63635    
414.0000      	24154.5894    	1465.72729    
414.5000      	24125.4524    	1452.72729    
415.0000      	24096.3855    	1414.81824    
415.5000      	24067.3887    	1474.18176    
416.0000      	24038.4615    	1518.09094    
416.5000      	24009.6038    	1508.00000    
417.0000      	23980.8153    	1473.81824    
417.5000      	23952.0958    	1439.45459    
418.0000      	23923.4450    	1538.00000    
418.5000      	23894.8626    	1512.00000    
419.0000      	23866.3484    	1514.90906    
419.5000      	23837.9023    	1445.09094    
420.0000      	23809.5238    	1466.18176    
420.5000      	23781.2128    	1515.09094    
421.0000      	23752.9691    	1468.63635    
421.5000      	23724.7924    	1453.36365    
422.0000      	23696.6825    	1504.18176    
422.5000      	23668.6391    	1480.45459    
423.0000      	23640.6619    	1508.27271    
423.5000      	23612.7509    	1436.54541    
424.0000      	23584.9057    	1511.45459    
424.5000      	23557.1260    	1549.63635    
425.0000      	23529.4118    	1451.36365    
425.5000      	23501.7626    	1461.72729    
426.0000      	23474.1784    	1458.81824    
426.5000      	23446.6589    	1489.45459    
427.0000      	23419.2037    	1472.36365    
427.5000      	23391.8129    	1498.45459    
428.0000      	23364.4860    	1451.09094    
428.5000      	23337.2229    	1461.27271    
429.0000      	23310.0233    	1616.54541    
429.5000      	23282.8871    	1517.72729    
430.0000      	23255.8140    	1476.45459    
430.5000      	23228.8037    	1490.72729    
431.0000      	23201.8561    	1583.81824    
431.5000      	23174.9710    	1451.09094    
432.0000      	23148.1481    	1439.00000    
432.5000      	23121.3873    	1485.72729    
433.0000      	23094.6882    	1418.09094    
433.5000      	23068.0507    	1475.45459    
434.0000      	23041.4747    	1578.63635    
434.5000      	23014.9597    	1451.18176    
435.0000      	22988.5057    	1504.72729    
435.5000      	22962.1125    	1549.63635    
436.0000      	22935.7798    	1508.63635    
436.5000      	22909.5074    	1453.63635    
437.0000      	22883.2952    	1451.63635    
437.5000      	22857.1429    	1463.90906    
438.0000      	22831.0502    	1428.45459    
438.5000      	22805.0171    	1406.36365    
439.0000      	22779.0433    	1416.09094    
439.5000      	22753.1286    	1394.54541    
440.0000      	22727.2727    	1632.81824    
440.5000      	22701.4756    	1528.00000    
441.0000      	22675.7370    	1624.09094    
441.5000      	22650.0566    	1439.90906    
442.0000      	22624.4344    	1434.27271    
442.5000      	22598.8701    	1566.54541    
443.0000      	22573.3634    	1517.90906    
443.5000      	22547.9143    	1501.81824    
444.0000      	22522.5225    	1493.90906    
444.5000      	22497.1879    	1514.54541    
445.0000      	22471.9101    	1537.09094    
445.5000      	22446.6891    	1368.09094    
446.0000      	22421.5247    	1406.27271    
446.5000      	22396.4166    	1502.18176    
447.0000      	22371.3647    	1413.54541    
447.5000      	22346.3687    	1464.27271    
448.0000      	22321.4286    	1517.45459    
448.5000      	22296.5440    	1434.90906    
449.0000      	22271.7149    	1488.90906    
449.5000      	22246.9410    	1586.45459    
450.0000      	22222.2222    	1466.09094    
450.5000      	22197.5583    	1515.45459    
451.0000      	22172.9490    	1522.81824    
451.5000      	22148.3942    	1512.09094    
452.0000      	22123.8938    	1454.36365    
452.5000      	22099.4475    	1434.81824    
453.0000      	22075.0552    	1463.09094    
453.5000      	22050.7166    	1440.09094    
454.0000      	22026.4317    	1412.36365    
454.5000      	22002.2002    	1436.72729    
455.0000      	21978.0220    	1464.45459    
455.5000      	21953.8968    	1498.63635    
456.0000      	21929.8246    	1489.27271    
456.5000      	21905.8050    	1518.27271    
457.0000      	21881.8381    	1593.27271    
457.5000      	21857.9235    	1579.36365    
458.0000      	21834.0611    	1501.45459    
458.5000      	21810.2508    	1427.63635    
459.0000      	21786.4924    	1591.45459    
459.5000      	21762.7856    	1490.81824    
460.0000      	21739.1304    	1534.18176    
460.5000      	21715.5266    	1472.00000    
461.0000      	21691.9740    	1505.27271    
461.5000      	21668.4724    	1596.45459    
462.0000      	21645.0216    	1535.27271    
462.5000      	21621.6216    	1450.45459    
463.0000      	21598.2721    	1512.54541    
463.5000      	21574.9730    	1451.90906    
464.0000      	21551.7241    	1443.27271    
464.5000      	21528.5253    	1503.27271    
465.0000      	21505.3763    	1586.00000    
465.5000      	21482.2771    	1494.00000    
466.0000      	21459.2275    	1805.18176    
466.5000      	21436.2272    	1410.63635    
467.0000      	21413.2762    	1451.72729    
467.5000      	21390.3743    	1548.54541    
468.0000      	21367.5214    	1458.36365    
468.5000      	21344.7172    	1485.27271    
469.0000      	21321.9616    	1602.63635    
469.5000      	21299.2545    	1552.45459    
470.0000      	21276.5957    	1476.81824    
470.5000      	21253.9851    	1581.00000    
471.0000      	21231.4225    	1534.27271    
471.5000      	21208.9077    	1458.63635    
472.0000      	21186.4407    	1404.18176    
472.5000      	21164.0212    	1468.72729    
473.0000      	21141.6490    	1509.45459    
473.5000      	21119.3242    	1458.09094    
474.0000      	21097.0464    	1583.54541    
474.5000      	21074.8156    	1535.00000    
475.0000      	21052.6316    	1401.90906    
475.5000      	21030.4942    	1537.00000    
476.0000      	21008.4034    	1471.72729    
476.5000      	20986.3589    	1495.81824    
477.0000      	20964.3606    	1548.45459    
477.5000      	20942.4084    	1603.63635    
478.0000      	20920.5021    	1625.81824    
478.5000      	20898.6416    	1583.27271    
479.0000      	20876.8267    	1569.09094    
479.5000      	20855.0574    	1574.18176    
480.0000      	20833.3333    	1563.09094    
480.5000      	20811.6545    	1589.54541    
481.0000      	20790.0208    	1651.09094    
481.5000      	20768.4320    	1560.18176    
482.0000      	20746.8880    	1599.90906    
482.5000      	20725.3886    	1730.63635    
483.0000      	20703.9337    	1686.00000    
483.5000      	20682.5233    	1724.90906    
484.0000      	20661.1570    	1733.45459    
484.5000      	20639.8349    	1749.81824    
485.0000      	20618.5567    	1751.27271    
485.5000      	20597.3223    	1834.54541    
486.0000      	20576.1317    	1864.63635    
486.5000      	20554.9846    	1752.54541    
487.0000      	20533.8809    	1849.54541    
487.5000      	20512.8205    	1882.54541    
488.0000      	20491.8033    	2021.27271    
488.5000      	20470.8291    	1909.72729    
489.0000      	20449.8978    	1936.27271    
489.5000      	20429.0092    	2070.27271    
490.0000      	20408.1633    	2135.36353    
490.5000      	20387.3598    	2140.72729    
491.0000      	20366.5988    	2153.09082    
491.5000      	20345.8800    	2315.18188    
492.0000      	20325.2033    	2297.09082    
492.5000      	20304.5685    	2371.36353    
493.0000      	20283.9757    	2548.72729    
493.5000      	20263.4245    	2401.09082    
494.0000      	20242.9150    	2550.81812    
494.5000      	20222.4469    	2697.18188    
495.0000      	20202.0202    	2766.90918    
495.5000      	20181.6347    	2787.72729    
496.0000      	20161.2903    	2964.00000    
496.5000      	20140.9869    	3003.18188    
497.0000      	20120.7243    	3096.81812    
497.5000      	20100.5025    	3315.90918    
498.0000      	20080.3213    	3321.54541    
498.5000      	20060.1805    	3476.00000    
499.0000      	20040.0802    	3771.54541    
499.5000      	20020.0200    	3757.18188    
500.0000      	20000.0000    	3859.18188    
500.5000      	19980.0200    	4056.27271    
501.0000      	19960.0798    	4260.63623    
501.5000      	19940.1795    	4343.27295    
502.0000      	19920.3187    	4487.90918    
502.5000      	19900.4975    	4625.00000    
503.0000      	19880.7157    	4758.90918    
503.5000      	19860.9732    	5052.45459    
504.0000      	19841.2698    	5275.00000    
504.5000      	19821.6056    	5510.09082    
505.0000      	19801.9802    	5568.63623    
505.5000      	19782.3937    	5741.72705    
506.0000      	19762.8458    	5961.72705    
506.5000      	19743.3366    	6162.18164    
507.0000      	19723.8659    	6475.27295    
507.5000      	19704.4335    	6635.90918    
508.0000      	19685.0394    	6808.18164    
508.5000      	19665.6834    	6939.00000    
509.0000      	19646.3654    	7145.54541    
509.5000      	19627.0854    	7415.72705    
510.0000      	19607.8431    	7625.90918    
510.5000      	19588.6386    	7675.72705    
511.0000      	19569.4716    	7842.00000    
511.5000      	19550.3421    	8120.90918    
512.0000      	19531.2500    	8254.63672    
512.5000      	19512.1951    	8225.18164    
513.0000      	19493.1774    	8308.00000    
513.5000      	19474.1967    	8394.72754    
514.0000      	19455.2529    	8536.09082    
514.5000      	19436.3460    	8546.81836    
515.0000      	19417.4757    	8563.54590    
515.5000      	19398.6421    	8693.00000    
516.0000      	19379.8450    	8607.36328    
516.5000      	19361.0842    	8635.90918    
517.0000      	19342.3598    	8527.27246    
517.5000      	19323.6715    	8641.27246    
518.0000      	19305.0193    	8543.09082    
518.5000      	19286.4031    	8429.54590    
519.0000      	19267.8227    	8311.90918    
519.5000      	19249.2782    	8268.18164    
520.0000      	19230.7692    	8145.63623    
520.5000      	19212.2959    	8095.00000    
521.0000      	19193.8580    	7971.54541    
521.5000      	19175.4554    	7745.36377    
522.0000      	19157.0881    	7708.09082    
522.5000      	19138.7560    	7481.36377    
523.0000      	19120.4589    	7350.72705    
523.5000      	19102.1968    	7145.54541    
524.0000      	19083.9695    	7018.36377    
524.5000      	19065.7769    	6839.18164    
525.0000      	19047.6190    	6714.18164    
525.5000      	19029.4957    	6450.72705    
526.0000      	19011.4068    	6363.72705    
526.5000      	18993.3523    	6435.81836    
527.0000      	18975.3321    	6045.81836    
527.5000      	18957.3460    	5790.09082    
528.0000      	18939.3939    	5762.90918    
528.5000      	18921.4759    	5757.18164    
529.0000      	18903.5917    	5505.45459    
529.5000      	18885.7413    	5374.00000    
530.0000      	18867.9245    	5184.54541    
530.5000      	18850.1414    	5029.63623    
531.0000      	18832.3917    	5070.00000    
531.5000      	18814.6754    	4908.81836    
532.0000      	18796.9925    	4846.18164    
532.5000      	18779.3427    	4695.45459    
533.0000      	18761.7261    	4545.00000    
533.5000      	18744.1425    	4491.27295    
534.0000      	18726.5918    	4438.90918    
534.5000      	18709.0739    	4301.09082    
535.0000      	18691.5888    	4308.09082    
535.5000      	18674.1363    	4125.63623    
536.0000      	18656.7164    	4172.27295    
536.5000      	18639.3290    	3999.27271    
537.0000      	18621.9739    	3932.81812    
537.5000      	18604.6512    	3890.45459    
538.0000      	18587.3606    	3799.00000    
538.5000      	18570.1021    	3750.18188    
539.0000      	18552.8757    	3692.27271    
539.5000      	18535.6812    	3654.54541    
540.0000      	18518.5185    	3492.18188    
540.5000      	18501.3876    	3458.63647    
541.0000      	18484.2884    	3491.09082    
541.5000      	18467.2207    	3413.45459    
542.0000      	18450.1845    	3379.27271    
542.5000      	18433.1797    	3227.90918    
543.0000      	18416.2063    	3239.36353    
543.5000      	18399.2640    	3254.81812    
544.0000      	18382.3529    	3169.54541    
544.5000      	18365.4729    	3050.09082    
545.0000      	18348.6239    	3101.72729    
545.5000      	18331.8057    	3019.72729    
546.0000      	18315.0183    	3072.18188    
546.5000      	18298.2617    	2925.72729    
547.0000      	18281.5356    	2878.90918    
547.5000      	18264.8402    	2835.00000    
548.0000      	18248.1752    	2817.54541    
548.5000      	18231.5406    	2686.54541    
549.0000      	18214.9362    	2733.45459    
549.5000      	18198.3621    	2694.45459    
550.0000      	18181.8182    	2600.81812    
550.5000      	18165.3043    	2619.09082    
551.0000      	18148.8203    	2508.81812    
551.5000      	18132.3663    	2501.00000    
552.0000      	18115.9420    	2435.90918    
552.5000      	18099.5475    	2406.36353    
553.0000      	18083.1826    	2336.36353    
553.5000      	18066.8473    	2499.63647    
554.0000      	18050.5415    	2385.18188    
554.5000      	18034.2651    	2333.09082    
555.0000      	18018.0180    	2214.54541    
555.5000      	18001.8002    	2216.45459    
556.0000      	17985.6115    	2157.81812    
556.5000      	17969.4519    	2129.00000    
557.0000      	17953.3214    	2161.54541    
557.5000      	17937.2197    	2122.54541    
558.0000      	17921.1470    	2108.09082    
558.5000      	17905.1030    	2081.18188    
559.0000      	17889.0877    	2081.18188    
559.5000      	17873.1010    	2140.54541    
560.0000      	17857.1429    	2098.45459    
560.5000      	17841.2132    	1978.63635    
561.0000      	17825.3119    	2058.81812    
561.5000      	17809.4390    	1904.81824    
562.0000      	17793.5943    	1972.81824    
562.5000      	17777.7778    	1970.45459    
563.0000      	17761.9893    	1918.27271    
563.5000      	17746.2289    	1846.36365    
