Unit Serial No : 240-LV0P465-EU
Integration Time : 113 ms
Time Average: 11
Binning Average: 0
FFT Smoothing: 0%
Project Name : Project Name
Sample Name : Sample Name
Measurement No : 1
Measurement Time : 09/18/2007   09:21:54

Wavelength(nm)	Wavenumber(1/cm)	Intensity(Counts)
350.0000      	28571.4286    	2116.45459    
350.5000      	28530.6705    	2081.00000    
351.0000      	28490.0285    	2023.09094    
351.5000      	28449.5021    	2068.18188    
352.0000      	28409.0909    	2040.27271    
352.5000      	28368.7943    	2027.27271    
353.0000      	28328.6119    	1986.90906    
353.5000      	28288.5431    	2065.18188    
354.0000      	28248.5876    	1942.90906    
354.5000      	28208.7447    	1921.81824    
355.0000      	28169.0141    	1976.18176    
355.5000      	28129.3952    	2012.90906    
356.0000      	28089.8876    	1861.63635    
356.5000      	28050.4909    	1944.54541    
357.0000      	28011.2045    	1935.72729    
357.5000      	27972.0280    	1963.00000    
358.0000      	27932.9609    	1969.36365    
358.5000      	27894.0028    	2159.90918    
359.0000      	27855.1532    	1983.09094    
359.5000      	27816.4117    	2026.72729    
360.0000      	27777.7778    	1993.00000    
360.5000      	27739.2510    	2029.54541    
361.0000      	27700.8310    	1995.27271    
361.5000      	27662.5173    	2121.63647    
362.0000      	27624.3094    	2017.72729    
362.5000      	27586.2069    	2091.27271    
363.0000      	27548.2094    	2092.00000    
363.5000      	27510.3164    	1931.63635    
364.0000      	27472.5275    	1829.63635    
364.5000      	27434.8422    	1895.00000    
365.0000      	27397.2603    	1982.63635    
365.5000      	27359.7811    	2036.45459    
366.0000      	27322.4044    	2034.81824    
366.5000      	27285.1296    	2006.18176    
367.0000      	27247.9564    	1981.36365    
367.5000      	27210.8844    	2118.27271    
368.0000      	27173.9130    	1996.90906    
368.5000      	27137.0421    	2142.90918    
369.0000      	27100.2710    	2019.00000    
369.5000      	27063.5995    	1978.09094    
370.0000      	27027.0270    	2136.54541    
370.5000      	26990.5533    	1891.63635    
371.0000      	26954.1779    	2032.27271    
371.5000      	26917.9004    	1952.27271    
372.0000      	26881.7204    	1943.18176    
372.5000      	26845.6376    	2037.90906    
373.0000      	26809.6515    	1950.27271    
373.5000      	26773.7617    	2007.81824    
374.0000      	26737.9679    	2145.36353    
374.5000      	26702.2697    	2022.09094    
375.0000      	26666.6667    	1956.27271    
375.5000      	26631.1585    	1991.72729    
376.0000      	26595.7447    	2004.27271    
376.5000      	26560.4250    	1927.36365    
377.0000      	26525.1989    	2009.27271    
377.5000      	26490.0662    	2021.81824    
378.0000      	26455.0265    	1995.45459    
378.5000      	26420.0793    	1988.36365    
379.0000      	26385.2243    	1999.72729    
379.5000      	26350.4611    	2026.09094    
380.0000      	26315.7895    	1975.90906    
380.5000      	26281.2089    	1985.81824    
381.0000      	26246.7192    	2001.00000    
381.5000      	26212.3198    	1935.36365    
382.0000      	26178.0105    	2010.00000    
382.5000      	26143.7908    	2056.45459    
383.0000      	26109.6606    	2080.45459    
383.5000      	26075.6193    	2006.81824    
384.0000      	26041.6667    	2165.54541    
384.5000      	26007.8023    	1996.72729    
385.0000      	25974.0260    	1988.72729    
385.5000      	25940.3372    	1978.18176    
386.0000      	25906.7358    	1919.45459    
386.5000      	25873.2212    	1994.00000    
387.0000      	25839.7933    	2040.27271    
387.5000      	25806.4516    	1970.18176    
388.0000      	25773.1959    	2064.18188    
388.5000      	25740.0257    	2065.45459    
389.0000      	25706.9409    	2020.72729    
389.5000      	25673.9409    	2071.36353    
390.0000      	25641.0256    	2023.54541    
390.5000      	25608.1946    	2006.45459    
391.0000      	25575.4476    	2023.63635    
391.5000      	25542.7842    	2132.36353    
392.0000      	25510.2041    	1973.63635    
392.5000      	25477.7070    	1984.81824    
393.0000      	25445.2926    	2100.54541    
393.5000      	25412.9606    	1978.63635    
394.0000      	25380.7107    	2128.09082    
394.5000      	25348.5425    	1955.36365    
395.0000      	25316.4557    	2065.63647    
395.5000      	25284.4501    	1980.72729    
396.0000      	25252.5253    	2148.09082    
396.5000      	25220.6810    	2037.81824    
397.0000      	25188.9169    	2086.45459    
397.5000      	25157.2327    	2093.90918    
398.0000      	25125.6281    	2055.18188    
398.5000      	25094.1029    	2014.36365    
399.0000      	25062.6566    	2092.90918    
399.5000      	25031.2891    	2158.81812    
400.0000      	25000.0000    	2127.45459    
400.5000      	24968.7890    	2023.81824    
401.0000      	24937.6559    	2001.45459    
401.5000      	24906.6002    	2109.90918    
402.0000      	24875.6219    	2197.81812    
402.5000      	24844.7205    	2049.36353    
403.0000      	24813.8958    	1929.54541    
403.5000      	24783.1475    	2066.00000    
404.0000      	24752.4752    	2056.18188    
404.5000      	24721.8789    	2140.09082    
405.0000      	24691.3580    	2064.81812    
405.5000      	24660.9125    	2026.72729    
406.0000      	24630.5419    	2014.54541    
406.5000      	24600.2460    	2007.45459    
407.0000      	24570.0246    	2126.36353    
407.5000      	24539.8773    	2002.36365    
408.0000      	24509.8039    	2006.27271    
408.5000      	24479.8042    	2037.81824    
409.0000      	24449.8778    	2021.27271    
409.5000      	24420.0244    	2124.54541    
410.0000      	24390.2439    	2111.90918    
410.5000      	24360.5359    	2237.63647    
411.0000      	24330.9002    	2180.72729    
411.5000      	24301.3366    	2182.90918    
412.0000      	24271.8447    	2246.63647    
412.5000      	24242.4242    	2115.09082    
413.0000      	24213.0751    	2243.18188    
413.5000      	24183.7969    	2195.90918    
414.0000      	24154.5894    	2192.90918    
414.5000      	24125.4524    	2184.90918    
415.0000      	24096.3855    	2150.27271    
415.5000      	24067.3887    	2230.18188    
416.0000      	24038.4615    	2247.36353    
416.5000      	24009.6038    	2214.18188    
417.0000      	23980.8153    	2293.90918    
417.5000      	23952.0958    	2339.72729    
418.0000      	23923.4450    	2446.45459    
418.5000      	23894.8626    	2429.81812    
419.0000      	23866.3484    	2484.36353    
419.5000      	23837.9023    	2447.27271    
420.0000      	23809.5238    	2551.45459    
420.5000      	23781.2128    	2653.90918    
421.0000      	23752.9691    	2637.45459    
421.5000      	23724.7924    	2664.18188    
422.0000      	23696.6825    	2800.81812    
422.5000      	23668.6391    	2835.90918    
423.0000      	23640.6619    	2933.54541    
423.5000      	23612.7509    	2917.18188    
424.0000      	23584.9057    	3132.27271    
424.5000      	23557.1260    	3314.72729    
425.0000      	23529.4118    	3362.63647    
425.5000      	23501.7626    	3370.63647    
426.0000      	23474.1784    	3475.00000    
426.5000      	23446.6589    	3640.00000    
427.0000      	23419.2037    	3809.36353    
427.5000      	23391.8129    	4086.36353    
428.0000      	23364.4860    	4191.81836    
428.5000      	23337.2229    	4305.63623    
429.0000      	23310.0233    	4826.45459    
429.5000      	23282.8871    	4888.27295    
430.0000      	23255.8140    	4919.36377    
430.5000      	23228.8037    	5114.00000    
431.0000      	23201.8561    	5366.90918    
431.5000      	23174.9710    	5524.09082    
432.0000      	23148.1481    	5865.00000    
432.5000      	23121.3873    	6260.63623    
433.0000      	23094.6882    	6494.81836    
433.5000      	23068.0507    	6821.00000    
434.0000      	23041.4747    	7335.00000    
434.5000      	23014.9597    	7708.45459    
435.0000      	22988.5057    	8454.27246    
435.5000      	22962.1125    	9141.81836    
436.0000      	22935.7798    	9510.90918    
436.5000      	22909.5074    	9945.00000    
437.0000      	22883.2952    	10371.54590   
437.5000      	22857.1429    	11320.00000   
438.0000      	22831.0502    	11877.27246   
438.5000      	22805.0171    	12626.90918   
439.0000      	22779.0433    	13366.27246   
439.5000      	22753.1286    	14351.72754   
440.0000      	22727.2727    	14801.18164   
440.5000      	22701.4756    	15284.45410   
441.0000      	22675.7370    	16141.00000   
441.5000      	22650.0566    	16603.45508   
442.0000      	22624.4344    	17689.18164   
442.5000      	22598.8701    	18377.36328   
443.0000      	22573.3634    	19040.36328   
443.5000      	22547.9143    	20301.18164   
444.0000      	22522.5225    	20722.72656   
444.5000      	22497.1879    	21843.72656   
445.0000      	22471.9101    	23621.00000   
445.5000      	22446.6891    	24300.45508   
446.0000      	22421.5247    	25719.09180   
446.5000      	22396.4166    	27701.36328   
447.0000      	22371.3647    	28559.27344   
447.5000      	22346.3687    	28543.27344   
448.0000      	22321.4286    	30223.36328   
448.5000      	22296.5440    	31801.90820   
449.0000      	22271.7149    	33317.63672   
449.5000      	22246.9410    	34225.81641   
450.0000      	22222.2222    	36559.08984   
450.5000      	22197.5583    	36979.91016   
451.0000      	22172.9490    	37215.63672   
451.5000      	22148.3942    	38506.54688   
452.0000      	22123.8938    	38734.91016   
452.5000      	22099.4475    	38621.45313   
453.0000      	22075.0552    	40100.72656   
453.5000      	22050.7166    	41159.00000   
454.0000      	22026.4317    	43189.81641   
454.5000      	22002.2002    	43443.08984   
455.0000      	21978.0220    	44637.18359   
455.5000      	21953.8968    	44040.63672   
456.0000      	21929.8246    	46277.08984   
456.5000      	21905.8050    	47802.54688   
457.0000      	21881.8381    	49081.63672   
457.5000      	21857.9235    	49212.54688   
458.0000      	21834.0611    	50520.81641   
458.5000      	21810.2508    	49594.91016   
459.0000      	21786.4924    	50009.72656   
459.5000      	21762.7856    	50660.72656   
460.0000      	21739.1304    	51892.63672   
460.5000      	21715.5266    	50459.08984   
461.0000      	21691.9740    	50748.54688   
461.5000      	21668.4724    	50139.63672   
462.0000      	21645.0216    	51385.45313   
462.5000      	21621.6216    	51797.45313   
463.0000      	21598.2721    	49844.27344   
463.5000      	21574.9730    	49141.08984   
464.0000      	21551.7241    	48463.36328   
464.5000      	21528.5253    	49187.63672   
465.0000      	21505.3763    	50654.54688   
465.5000      	21482.2771    	48200.63672   
466.0000      	21459.2275    	48721.45313   
466.5000      	21436.2272    	46592.72656   
467.0000      	21413.2762    	46736.91016   
467.5000      	21390.3743    	46428.08984   
468.0000      	21367.5214    	45534.81641   
468.5000      	21344.7172    	43796.00000   
469.0000      	21321.9616    	44858.72656   
469.5000      	21299.2545    	43120.63672   
470.0000      	21276.5957    	43022.91016   
470.5000      	21253.9851    	42736.91016   
471.0000      	21231.4225    	42049.63672   
471.5000      	21208.9077    	39768.91016   
472.0000      	21186.4407    	38900.81641   
472.5000      	21164.0212    	38312.36328   
473.0000      	21141.6490    	37996.00000   
473.5000      	21119.3242    	35971.45313   
474.0000      	21097.0464    	35599.91016   
474.5000      	21074.8156    	34071.45313   
475.0000      	21052.6316    	32536.27344   
475.5000      	21030.4942    	32206.81836   
476.0000      	21008.4034    	30679.09180   
476.5000      	20986.3589    	30246.54492   
477.0000      	20964.3606    	29414.45508   
477.5000      	20942.4084    	28399.90820   
478.0000      	20920.5021    	27857.18164   
478.5000      	20898.6416    	27031.45508   
479.0000      	20876.8267    	26031.63672   
479.5000      	20855.0574    	25902.27344   
480.0000      	20833.3333    	25851.09180   
480.5000      	20811.6545    	25075.36328   
481.0000      	20790.0208    	24558.63672   
481.5000      	20768.4320    	23353.09180   
482.0000      	20746.8880    	23176.72656   
482.5000      	20725.3886    	22883.72656   
483.0000      	20703.9337    	22148.27344   
483.5000      	20682.5233    	21565.36328   
484.0000      	20661.1570    	20512.27344   
484.5000      	20639.8349    	19666.18164   
485.0000      	20618.5567    	19388.18164   
485.5000      	20597.3223    	18529.81836   
486.0000      	20576.1317    	17634.72656   
486.5000      	20554.9846    	16661.18164   
487.0000      	20533.8809    	15867.63672   
487.5000      	20512.8205    	15113.00000   
488.0000      	20491.8033    	14958.36328   
488.5000      	20470.8291    	14065.54590   
489.0000      	20449.8978    	13448.54590   
489.5000      	20429.0092    	12988.63672   
490.0000      	20408.1633    	12562.90918   
490.5000      	20387.3598    	11953.72754   
491.0000      	20366.5988    	11676.81836   
491.5000      	20345.8800    	11306.63672   
492.0000      	20325.2033    	10808.18164   
492.5000      	20304.5685    	10403.72754   
493.0000      	20283.9757    	10197.00000   
493.5000      	20263.4245    	9761.18164    
494.0000      	20242.9150    	9577.54590    
494.5000      	20222.4469    	9350.27246    
495.0000      	20202.0202    	9007.63672    
495.5000      	20181.6347    	8594.72754    
496.0000      	20161.2903    	8435.72754    
496.5000      	20140.9869    	8271.45410    
497.0000      	20120.7243    	7940.90918    
497.5000      	20100.5025    	7785.90918    
498.0000      	20080.3213    	7386.27295    
498.5000      	20060.1805    	7096.45459    
499.0000      	20040.0802    	7105.18164    
499.5000      	20020.0200    	6832.27295    
500.0000      	20000.0000    	6454.63623    
500.5000      	19980.0200    	6237.18164    
501.0000      	19960.0798    	6016.45459    
501.5000      	19940.1795    	5698.72705    
502.0000      	19920.3187    	5635.18164    
502.5000      	19900.4975    	5333.09082    
503.0000      	19880.7157    	5070.81836    
503.5000      	19860.9732    	4931.54541    
504.0000      	19841.2698    	4745.00000    
504.5000      	19821.6056    	4733.45459    
505.0000      	19801.9802    	4605.27295    
505.5000      	19782.3937    	4371.72705    
506.0000      	19762.8458    	4236.90918    
506.5000      	19743.3366    	4064.63647    
507.0000      	19723.8659    	4073.90918    
507.5000      	19704.4335    	4069.63647    
508.0000      	19685.0394    	4009.36353    
508.5000      	19665.6834    	3749.54541    
509.0000      	19646.3654    	3752.45459    
509.5000      	19627.0854    	3852.27271    
510.0000      	19607.8431    	3891.27271    
510.5000      	19588.6386    	3594.09082    
511.0000      	19569.4716    	3482.18188    
511.5000      	19550.3421    	3548.36353    
512.0000      	19531.2500    	3542.45459    
512.5000      	19512.1951    	3239.90918    
513.0000      	19493.1774    	3220.18188    
513.5000      	19474.1967    	3150.27271    
514.0000      	19455.2529    	3165.36353    
514.5000      	19436.3460    	3070.00000    
515.0000      	19417.4757    	2990.45459    
515.5000      	19398.6421    	3089.00000    
516.0000      	19379.8450    	2890.00000    
516.5000      	19361.0842    	2880.54541    
517.0000      	19342.3598    	2764.63647    
517.5000      	19323.6715    	2791.63647    
518.0000      	19305.0193    	2652.54541    
518.5000      	19286.4031    	2602.09082    
519.0000      	19267.8227    	2507.09082    
519.5000      	19249.2782    	2565.45459    
520.0000      	19230.7692    	2517.36353    
520.5000      	19212.2959    	2520.27271    
521.0000      	19193.8580    	2500.00000    
521.5000      	19175.4554    	2421.36353    
522.0000      	19157.0881    	2448.27271    
522.5000      	19138.7560    	2471.81812    
523.0000      	19120.4589    	2441.63647    
523.5000      	19102.1968    	2348.72729    
524.0000      	19083.9695    	2331.72729    
524.5000      	19065.7769    	2323.81812    
525.0000      	19047.6190    	2356.00000    
525.5000      	19029.4957    	2222.54541    
526.0000      	19011.4068    	2197.63647    
526.5000      	18993.3523    	2403.81812    
527.0000      	18975.3321    	2238.54541    
527.5000      	18957.3460    	2085.72729    
528.0000      	18939.3939    	2239.45459    
528.5000      	18921.4759    	2305.54541    
529.0000      	18903.5917    	2179.18188    
529.5000      	18885.7413    	2207.72729    
530.0000      	18867.9245    	2171.90918    
530.5000      	18850.1414    	2103.00000    
531.0000      	18832.3917    	2224.27271    
531.5000      	18814.6754    	2154.81812    
532.0000      	18796.9925    	2213.09082    
532.5000      	18779.3427    	2127.18188    
533.0000      	18761.7261    	2123.72729    
533.5000      	18744.1425    	2051.81812    
534.0000      	18726.5918    	2113.18188    
534.5000      	18709.0739    	2030.90906    
535.0000      	18691.5888    	2158.36353    
535.5000      	18674.1363    	2012.36365    
536.0000      	18656.7164    	2114.45459    
536.5000      	18639.3290    	2039.54541    
537.0000      	18621.9739    	2025.72729    
537.5000      	18604.6512    	2055.54541    
538.0000      	18587.3606    	2003.72729    
538.5000      	18570.1021    	2000.18176    
539.0000      	18552.8757    	2006.54541    
539.5000      	18535.6812    	2047.45459    
540.0000      	18518.5185    	1920.45459    
540.5000      	18501.3876    	1986.00000    
541.0000      	18484.2884    	2080.72729    
541.5000      	18467.2207    	2004.81824    
542.0000      	18450.1845    	2053.54541    
542.5000      	18433.1797    	1935.72729    
543.0000      	18416.2063    	2036.36365    
543.5000      	18399.2640    	2041.81824    
544.0000      	18382.3529    	1968.09094    
544.5000      	18365.4729    	1944.54541    
545.0000      	18348.6239    	2057.09082    
545.5000      	18331.8057    	1987.18176    
546.0000      	18315.0183    	2079.27271    
546.5000      	18298.2617    	1955.81824    
547.0000      	18281.5356    	1979.36365    
547.5000      	18264.8402    	1968.90906    
548.0000      	18248.1752    	1961.18176    
548.5000      	18231.5406    	1926.36365    
549.0000      	18214.9362    	2027.72729    
549.5000      	18198.3621    	2042.18176    
550.0000      	18181.8182    	1956.00000    
550.5000      	18165.3043    	1972.54541    
551.0000      	18148.8203    	1866.27271    
551.5000      	18132.3663    	1983.45459    
552.0000      	18115.9420    	1894.45459    
552.5000      	18099.5475    	1910.45459    
553.0000      	18083.1826    	1863.27271    
553.5000      	18066.8473    	2184.54541    
554.0000      	18050.5415    	2007.63635    
554.5000      	18034.2651    	1952.45459    
555.0000      	18018.0180    	1876.09094    
555.5000      	18001.8002    	1915.36365    
556.0000      	17985.6115    	1884.18176    
556.5000      	17969.4519    	1890.18176    
557.0000      	17953.3214    	1908.72729    
557.5000      	17937.2197    	1931.63635    
558.0000      	17921.1470    	1929.81824    
558.5000      	17905.1030    	1939.18176    
559.0000      	17889.0877    	1941.45459    
559.5000      	17873.1010    	2101.63647    
560.0000      	17857.1429    	2015.90906    
560.5000      	17841.2132    	1912.54541    
561.0000      	17825.3119    	2015.81824    
561.5000      	17809.4390    	1837.09094    
562.0000      	17793.5943    	1997.72729    
562.5000      	17777.7778    	1995.00000    
563.0000      	17761.9893    	1941.54541    
563.5000      	17746.2289    	1841.72729    
