Unit Serial No : 240-LV0P465-EU
Integration Time : 113 ms
Time Average: 11
Binning Average: 0
FFT Smoothing: 0%
Project Name : Project Name
Sample Name : Sample Name
Measurement No : 1
Measurement Time : 09/18/2007   09:23:29

Wavelength(nm)	Wavenumber(1/cm)	Intensity(Counts)
350.0000      	28571.4286    	2057.63647    
350.5000      	28530.6705    	2032.09094    
351.0000      	28490.0285    	2020.09094    
351.5000      	28449.5021    	2033.72729    
352.0000      	28409.0909    	1981.54541    
352.5000      	28368.7943    	1981.27271    
353.0000      	28328.6119    	1946.72729    
353.5000      	28288.5431    	2037.63635    
354.0000      	28248.5876    	1920.36365    
354.5000      	28208.7447    	1897.27271    
355.0000      	28169.0141    	1936.00000    
355.5000      	28129.3952    	1980.00000    
356.0000      	28089.8876    	1801.81824    
356.5000      	28050.4909    	1911.45459    
357.0000      	28011.2045    	1911.18176    
357.5000      	27972.0280    	1933.18176    
358.0000      	27932.9609    	1958.09094    
358.5000      	27894.0028    	2154.27271    
359.0000      	27855.1532    	1934.27271    
359.5000      	27816.4117    	1982.36365    
360.0000      	27777.7778    	1950.63635    
360.5000      	27739.2510    	1963.45459    
361.0000      	27700.8310    	1974.09094    
361.5000      	27662.5173    	2100.09082    
362.0000      	27624.3094    	2005.09094    
362.5000      	27586.2069    	2053.36353    
363.0000      	27548.2094    	2050.45459    
363.5000      	27510.3164    	1914.00000    
364.0000      	27472.5275    	1799.36365    
364.5000      	27434.8422    	1862.27271    
365.0000      	27397.2603    	1950.45459    
365.5000      	27359.7811    	1957.00000    
366.0000      	27322.4044    	2005.00000    
366.5000      	27285.1296    	1972.27271    
367.0000      	27247.9564    	1972.63635    
367.5000      	27210.8844    	2119.45459    
368.0000      	27173.9130    	1961.54541    
368.5000      	27137.0421    	2109.81812    
369.0000      	27100.2710    	1950.09094    
369.5000      	27063.5995    	1938.81824    
370.0000      	27027.0270    	2103.90918    
370.5000      	26990.5533    	1863.90906    
371.0000      	26954.1779    	1995.72729    
371.5000      	26917.9004    	1871.81824    
372.0000      	26881.7204    	1900.54541    
372.5000      	26845.6376    	1998.36365    
373.0000      	26809.6515    	1901.09094    
373.5000      	26773.7617    	1997.90906    
374.0000      	26737.9679    	2117.18188    
374.5000      	26702.2697    	1974.63635    
375.0000      	26666.6667    	1916.00000    
375.5000      	26631.1585    	1968.00000    
376.0000      	26595.7447    	1956.63635    
376.5000      	26560.4250    	1897.72729    
377.0000      	26525.1989    	1970.63635    
377.5000      	26490.0662    	1971.00000    
378.0000      	26455.0265    	1935.36365    
378.5000      	26420.0793    	1942.54541    
379.0000      	26385.2243    	1973.81824    
379.5000      	26350.4611    	1979.36365    
380.0000      	26315.7895    	1901.09094    
380.5000      	26281.2089    	1933.00000    
381.0000      	26246.7192    	1933.72729    
381.5000      	26212.3198    	1900.09094    
382.0000      	26178.0105    	1953.81824    
382.5000      	26143.7908    	2026.45459    
383.0000      	26109.6606    	2023.27271    
383.5000      	26075.6193    	1932.63635    
384.0000      	26041.6667    	2136.18188    
384.5000      	26007.8023    	1951.09094    
385.0000      	25974.0260    	1950.45459    
385.5000      	25940.3372    	1931.63635    
386.0000      	25906.7358    	1858.18176    
386.5000      	25873.2212    	1938.81824    
387.0000      	25839.7933    	1973.72729    
387.5000      	25806.4516    	1921.27271    
388.0000      	25773.1959    	2025.63635    
388.5000      	25740.0257    	1999.36365    
389.0000      	25706.9409    	1953.72729    
389.5000      	25673.9409    	2002.72729    
390.0000      	25641.0256    	1948.54541    
390.5000      	25608.1946    	1938.54541    
391.0000      	25575.4476    	1966.09094    
391.5000      	25542.7842    	2085.45459    
392.0000      	25510.2041    	1906.45459    
392.5000      	25477.7070    	1896.90906    
393.0000      	25445.2926    	2033.81824    
393.5000      	25412.9606    	1928.54541    
394.0000      	25380.7107    	2080.27271    
394.5000      	25348.5425    	1884.18176    
395.0000      	25316.4557    	2010.36365    
395.5000      	25284.4501    	1952.09094    
396.0000      	25252.5253    	2106.90918    
396.5000      	25220.6810    	1970.81824    
397.0000      	25188.9169    	2023.81824    
397.5000      	25157.2327    	2006.27271    
398.0000      	25125.6281    	1998.81824    
398.5000      	25094.1029    	1933.72729    
399.0000      	25062.6566    	2031.36365    
399.5000      	25031.2891    	2092.45459    
400.0000      	25000.0000    	2033.27271    
400.5000      	24968.7890    	1940.27271    
401.0000      	24937.6559    	1925.27271    
401.5000      	24906.6002    	2026.09094    
402.0000      	24875.6219    	2103.45459    
402.5000      	24844.7205    	2008.81824    
403.0000      	24813.8958    	1851.18176    
403.5000      	24783.1475    	1991.18176    
404.0000      	24752.4752    	1994.81824    
404.5000      	24721.8789    	2059.00000    
405.0000      	24691.3580    	1971.45459    
405.5000      	24660.9125    	1930.18176    
406.0000      	24630.5419    	1909.90906    
406.5000      	24600.2460    	1908.81824    
407.0000      	24570.0246    	2011.00000    
407.5000      	24539.8773    	1900.81824    
408.0000      	24509.8039    	1879.63635    
408.5000      	24479.8042    	1891.09094    
409.0000      	24449.8778    	1882.54541    
409.5000      	24420.0244    	1985.18176    
410.0000      	24390.2439    	1978.54541    
410.5000      	24360.5359    	2085.00000    
411.0000      	24330.9002    	2041.36365    
411.5000      	24301.3366    	2015.90906    
412.0000      	24271.8447    	2082.54541    
412.5000      	24242.4242    	1932.72729    
413.0000      	24213.0751    	2049.54541    
413.5000      	24183.7969    	2003.00000    
414.0000      	24154.5894    	1970.27271    
414.5000      	24125.4524    	1929.90906    
415.0000      	24096.3855    	1886.81824    
415.5000      	24067.3887    	1954.36365    
416.0000      	24038.4615    	2038.27271    
416.5000      	24009.6038    	2033.27271    
417.0000      	23980.8153    	1991.27271    
417.5000      	23952.0958    	1919.72729    
418.0000      	23923.4450    	2062.27271    
418.5000      	23894.8626    	2017.09094    
419.0000      	23866.3484    	2043.72729    
419.5000      	23837.9023    	1973.90906    
420.0000      	23809.5238    	2039.00000    
420.5000      	23781.2128    	2063.90918    
421.0000      	23752.9691    	2041.90906    
421.5000      	23724.7924    	2048.81812    
422.0000      	23696.6825    	2137.90918    
422.5000      	23668.6391    	2117.45459    
423.0000      	23640.6619    	2112.45459    
423.5000      	23612.7509    	2050.27271    
424.0000      	23584.9057    	2156.09082    
424.5000      	23557.1260    	2238.45459    
425.0000      	23529.4118    	2124.72729    
425.5000      	23501.7626    	2144.27271    
426.0000      	23474.1784    	2155.81812    
426.5000      	23446.6589    	2199.90918    
427.0000      	23419.2037    	2253.90918    
427.5000      	23391.8129    	2332.00000    
428.0000      	23364.4860    	2261.63647    
428.5000      	23337.2229    	2308.63647    
429.0000      	23310.0233    	2560.63647    
429.5000      	23282.8871    	2452.27271    
430.0000      	23255.8140    	2424.45459    
430.5000      	23228.8037    	2491.90918    
431.0000      	23201.8561    	2606.00000    
431.5000      	23174.9710    	2475.72729    
432.0000      	23148.1481    	2480.90918    
432.5000      	23121.3873    	2588.81812    
433.0000      	23094.6882    	2583.00000    
433.5000      	23068.0507    	2719.63647    
434.0000      	23041.4747    	2894.27271    
434.5000      	23014.9597    	2819.36353    
435.0000      	22988.5057    	2984.81812    
435.5000      	22962.1125    	3199.63647    
436.0000      	22935.7798    	3189.54541    
436.5000      	22909.5074    	3203.00000    
437.0000      	22883.2952    	3254.72729    
437.5000      	22857.1429    	3391.90918    
438.0000      	22831.0502    	3423.27271    
438.5000      	22805.0171    	3554.00000    
439.0000      	22779.0433    	3717.27271    
439.5000      	22753.1286    	3818.00000    
440.0000      	22727.2727    	4197.81836    
440.5000      	22701.4756    	4121.90918    
441.0000      	22675.7370    	4379.00000    
441.5000      	22650.0566    	4269.54541    
442.0000      	22624.4344    	4412.72705    
442.5000      	22598.8701    	4715.18164    
443.0000      	22573.3634    	4710.09082    
443.5000      	22547.9143    	4901.81836    
444.0000      	22522.5225    	4985.09082    
444.5000      	22497.1879    	5228.54541    
445.0000      	22471.9101    	5560.09082    
445.5000      	22446.6891    	5450.00000    
446.0000      	22421.5247    	5705.54541    
446.5000      	22396.4166    	6146.27295    
447.0000      	22371.3647    	6190.72705    
447.5000      	22346.3687    	6289.09082    
448.0000      	22321.4286    	6585.72705    
448.5000      	22296.5440    	6757.27295    
449.0000      	22271.7149    	7106.63623    
449.5000      	22246.9410    	7331.54541    
450.0000      	22222.2222    	7539.09082    
450.5000      	22197.5583    	7742.90918    
451.0000      	22172.9490    	7786.00000    
451.5000      	22148.3942    	7980.18164    
452.0000      	22123.8938    	7929.54541    
452.5000      	22099.4475    	7896.54541    
453.0000      	22075.0552    	8177.36377    
453.5000      	22050.7166    	8357.63672    
454.0000      	22026.4317    	8603.09082    
454.5000      	22002.2002    	8686.81836    
455.0000      	21978.0220    	8958.54590    
455.5000      	21953.8968    	8913.72754    
456.0000      	21929.8246    	9246.81836    
456.5000      	21905.8050    	9577.90918    
457.0000      	21881.8381    	9787.00000    
457.5000      	21857.9235    	9812.09082    
458.0000      	21834.0611    	10016.09082   
458.5000      	21810.2508    	9754.72754    
459.0000      	21786.4924    	10001.18164   
459.5000      	21762.7856    	9985.09082    
460.0000      	21739.1304    	10254.27246   
460.5000      	21715.5266    	9929.36328    
461.0000      	21691.9740    	10062.63672   
461.5000      	21668.4724    	10036.54590   
462.0000      	21645.0216    	10154.00000   
462.5000      	21621.6216    	10150.00000   
463.0000      	21598.2721    	9804.18164    
463.5000      	21574.9730    	9692.09082    
464.0000      	21551.7241    	9538.63672    
464.5000      	21528.5253    	9773.18164    
465.0000      	21505.3763    	9992.09082    
465.5000      	21482.2771    	9484.81836    
466.0000      	21459.2275    	9942.27246    
466.5000      	21436.2272    	9184.63672    
467.0000      	21413.2762    	9268.81836    
467.5000      	21390.3743    	9275.54590    
468.0000      	21367.5214    	9081.18164    
468.5000      	21344.7172    	8783.00000    
469.0000      	21321.9616    	9104.54590    
469.5000      	21299.2545    	8716.45410    
470.0000      	21276.5957    	8615.09082    
470.5000      	21253.9851    	8695.90918    
471.0000      	21231.4225    	8515.90918    
471.5000      	21208.9077    	7959.27295    
472.0000      	21186.4407    	7804.09082    
472.5000      	21164.0212    	7833.00000    
473.0000      	21141.6490    	7794.45459    
473.5000      	21119.3242    	7401.63623    
474.0000      	21097.0464    	7491.63623    
474.5000      	21074.8156    	7114.63623    
475.0000      	21052.6316    	6731.90918    
475.5000      	21030.4942    	6794.18164    
476.0000      	21008.4034    	6501.45459    
476.5000      	20986.3589    	6469.18164    
477.0000      	20964.3606    	6408.54541    
477.5000      	20942.4084    	6279.54541    
478.0000      	20920.5021    	6193.09082    
478.5000      	20898.6416    	5982.45459    
479.0000      	20876.8267    	5808.81836    
479.5000      	20855.0574    	5757.27295    
480.0000      	20833.3333    	5755.63623    
480.5000      	20811.6545    	5597.72705    
481.0000      	20790.0208    	5558.45459    
481.5000      	20768.4320    	5292.72705    
482.0000      	20746.8880    	5322.27295    
482.5000      	20725.3886    	5393.72705    
483.0000      	20703.9337    	5169.18164    
483.5000      	20682.5233    	5118.00000    
484.0000      	20661.1570    	4938.45459    
484.5000      	20639.8349    	4741.90918    
485.0000      	20618.5567    	4716.18164    
485.5000      	20597.3223    	4687.36377    
486.0000      	20576.1317    	4546.18164    
486.5000      	20554.9846    	4200.63623    
487.0000      	20533.8809    	4142.45459    
487.5000      	20512.8205    	4014.63647    
488.0000      	20491.8033    	4146.45459    
488.5000      	20470.8291    	3839.45459    
489.0000      	20449.8978    	3703.00000    
489.5000      	20429.0092    	3765.27271    
490.0000      	20408.1633    	3660.45459    
490.5000      	20387.3598    	3520.09082    
491.0000      	20366.5988    	3449.72729    
491.5000      	20345.8800    	3507.00000    
492.0000      	20325.2033    	3317.36353    
492.5000      	20304.5685    	3209.36353    
493.0000      	20283.9757    	3365.27271    
493.5000      	20263.4245    	3090.81812    
494.0000      	20242.9150    	3159.18188    
494.5000      	20222.4469    	3181.63647    
495.0000      	20202.0202    	3069.18188    
495.5000      	20181.6347    	2937.72729    
496.0000      	20161.2903    	3020.54541    
496.5000      	20140.9869    	2946.90918    
497.0000      	20120.7243    	2866.54541    
497.5000      	20100.5025    	2966.90918    
498.0000      	20080.3213    	2792.27271    
498.5000      	20060.1805    	2686.81812    
499.0000      	20040.0802    	2898.18188    
499.5000      	20020.0200    	2756.81812    
500.0000      	20000.0000    	2597.63647    
500.5000      	19980.0200    	2630.72729    
501.0000      	19960.0798    	2622.54541    
501.5000      	19940.1795    	2519.54541    
502.0000      	19920.3187    	2543.36353    
502.5000      	19900.4975    	2412.18188    
503.0000      	19880.7157    	2327.63647    
503.5000      	19860.9732    	2381.36353    
504.0000      	19841.2698    	2357.18188    
504.5000      	19821.6056    	2444.54541    
505.0000      	19801.9802    	2365.81812    
505.5000      	19782.3937    	2243.18188    
506.0000      	19762.8458    	2282.00000    
506.5000      	19743.3366    	2170.63647    
507.0000      	19723.8659    	2267.09082    
507.5000      	19704.4335    	2319.45459    
508.0000      	19685.0394    	2312.54541    
508.5000      	19665.6834    	2128.63647    
509.0000      	19646.3654    	2217.63647    
509.5000      	19627.0854    	2359.36353    
510.0000      	19607.8431    	2429.09082    
510.5000      	19588.6386    	2177.00000    
511.0000      	19569.4716    	2123.54541    
511.5000      	19550.3421    	2282.09082    
512.0000      	19531.2500    	2296.54541    
512.5000      	19512.1951    	2062.54541    
513.0000      	19493.1774    	2066.54541    
513.5000      	19474.1967    	2059.09082    
514.0000      	19455.2529    	2140.18188    
514.5000      	19436.3460    	2083.27271    
515.0000      	19417.4757    	2058.18188    
515.5000      	19398.6421    	2190.72729    
516.0000      	19379.8450    	2039.81824    
516.5000      	19361.0842    	2060.63647    
517.0000      	19342.3598    	1992.45459    
517.5000      	19323.6715    	2074.81812    
518.0000      	19305.0193    	1979.81824    
518.5000      	19286.4031    	1960.09094    
519.0000      	19267.8227    	1885.54541    
519.5000      	19249.2782    	1986.63635    
520.0000      	19230.7692    	1980.09094    
520.5000      	19212.2959    	2004.45459    
521.0000      	19193.8580    	1994.81824    
521.5000      	19175.4554    	1932.81824    
522.0000      	19157.0881    	2014.54541    
522.5000      	19138.7560    	2020.54541    
523.0000      	19120.4589    	2011.90906    
523.5000      	19102.1968    	1949.09094    
524.0000      	19083.9695    	1949.90906    
524.5000      	19065.7769    	1945.18176    
525.0000      	19047.6190    	1982.00000    
525.5000      	19029.4957    	1869.36365    
526.0000      	19011.4068    	1870.45459    
526.5000      	18993.3523    	2111.18188    
527.0000      	18975.3321    	1913.63635    
527.5000      	18957.3460    	1822.81824    
528.0000      	18939.3939    	1987.81824    
528.5000      	18921.4759    	2043.45459    
529.0000      	18903.5917    	1923.18176    
529.5000      	18885.7413    	1948.63635    
530.0000      	18867.9245    	1920.81824    
530.5000      	18850.1414    	1886.90906    
531.0000      	18832.3917    	2016.00000    
531.5000      	18814.6754    	1933.54541    
532.0000      	18796.9925    	1993.81824    
532.5000      	18779.3427    	1944.09094    
533.0000      	18761.7261    	1927.09094    
533.5000      	18744.1425    	1896.63635    
534.0000      	18726.5918    	1982.18176    
534.5000      	18709.0739    	1877.54541    
535.0000      	18691.5888    	2002.90906    
535.5000      	18674.1363    	1884.90906    
536.0000      	18656.7164    	2006.36365    
536.5000      	18639.3290    	1914.90906    
537.0000      	18621.9739    	1900.81824    
537.5000      	18604.6512    	1939.45459    
538.0000      	18587.3606    	1887.63635    
538.5000      	18570.1021    	1879.54541    
539.0000      	18552.8757    	1915.00000    
539.5000      	18535.6812    	1968.63635    
540.0000      	18518.5185    	1823.90906    
540.5000      	18501.3876    	1884.00000    
541.0000      	18484.2884    	1946.72729    
541.5000      	18467.2207    	1927.18176    
542.0000      	18450.1845    	1991.72729    
542.5000      	18433.1797    	1831.81824    
543.0000      	18416.2063    	1965.36365    
543.5000      	18399.2640    	1983.45459    
544.0000      	18382.3529    	1892.09094    
544.5000      	18365.4729    	1843.90906    
545.0000      	18348.6239    	2006.36365    
545.5000      	18331.8057    	1931.09094    
546.0000      	18315.0183    	2037.54541    
546.5000      	18298.2617    	1905.36365    
547.0000      	18281.5356    	1923.18176    
547.5000      	18264.8402    	1919.54541    
548.0000      	18248.1752    	1944.09094    
548.5000      	18231.5406    	1874.81824    
549.0000      	18214.9362    	2002.90906    
549.5000      	18198.3621    	1983.45459    
550.0000      	18181.8182    	1912.27271    
550.5000      	18165.3043    	1939.18176    
551.0000      	18148.8203    	1814.27271    
551.5000      	18132.3663    	1907.36365    
552.0000      	18115.9420    	1858.90906    
552.5000      	18099.5475    	1884.54541    
553.0000      	18083.1826    	1799.45459    
553.5000      	18066.8473    	2095.45459    
554.0000      	18050.5415    	1980.27271    
554.5000      	18034.2651    	1926.54541    
555.0000      	18018.0180    	1845.54541    
555.5000      	18001.8002    	1867.81824    
556.0000      	17985.6115    	1829.27271    
556.5000      	17969.4519    	1808.54541    
557.0000      	17953.3214    	1871.81824    
557.5000      	17937.2197    	1896.63635    
558.0000      	17921.1470    	1908.72729    
558.5000      	17905.1030    	1876.36365    
559.0000      	17889.0877    	1905.09094    
559.5000      	17873.1010    	2051.00000    
560.0000      	17857.1429    	1998.27271    
560.5000      	17841.2132    	1880.72729    
561.0000      	17825.3119    	1986.36365    
561.5000      	17809.4390    	1797.54541    
562.0000      	17793.5943    	1963.27271    
562.5000      	17777.7778    	1953.54541    
563.0000      	17761.9893    	1891.00000    
563.5000      	17746.2289    	1828.09094    
