Unit Serial No : 240-LV0P465-EU
Integration Time : 249 ms
Time Average: 11
Binning Average: 0
FFT Smoothing: 0%
Project Name : Project Name
Sample Name : Sample Name
Measurement No : 1
Measurement Time : 09/18/2007   09:28:53

Wavelength(nm)	Wavenumber(1/cm)	Intensity(Counts)
350.0000      	28571.4286    	2862.81812    
350.5000      	28530.6705    	2822.72729    
351.0000      	28490.0285    	2773.54541    
351.5000      	28449.5021    	2836.63647    
352.0000      	28409.0909    	2679.09082    
352.5000      	28368.7943    	2697.81812    
353.0000      	28328.6119    	2583.81812    
353.5000      	28288.5431    	2785.81812    
354.0000      	28248.5876    	2455.00000    
354.5000      	28208.7447    	2452.36353    
355.0000      	28169.0141    	2598.00000    
355.5000      	28129.3952    	2690.09082    
356.0000      	28089.8876    	2297.81812    
356.5000      	28050.4909    	2537.72729    
357.0000      	28011.2045    	2464.54541    
357.5000      	27972.0280    	2538.09082    
358.0000      	27932.9609    	2554.09082    
358.5000      	27894.0028    	3120.90918    
359.0000      	27855.1532    	2602.18188    
359.5000      	27816.4117    	2694.09082    
360.0000      	27777.7778    	2575.45459    
360.5000      	27739.2510    	2684.54541    
361.0000      	27700.8310    	2655.45459    
361.5000      	27662.5173    	2931.81812    
362.0000      	27624.3094    	2689.18188    
362.5000      	27586.2069    	2857.27271    
363.0000      	27548.2094    	2872.09082    
363.5000      	27510.3164    	2491.18188    
364.0000      	27472.5275    	2248.63647    
364.5000      	27434.8422    	2420.90918    
365.0000      	27397.2603    	2568.36353    
365.5000      	27359.7811    	2719.72729    
366.0000      	27322.4044    	2737.90918    
366.5000      	27285.1296    	2664.72729    
367.0000      	27247.9564    	2637.00000    
367.5000      	27210.8844    	2966.45459    
368.0000      	27173.9130    	2627.63647    
368.5000      	27137.0421    	2971.27271    
369.0000      	27100.2710    	2601.45459    
369.5000      	27063.5995    	2576.81812    
370.0000      	27027.0270    	2993.54541    
370.5000      	26990.5533    	2388.00000    
371.0000      	26954.1779    	2693.54541    
371.5000      	26917.9004    	2482.54541    
372.0000      	26881.7204    	2531.27271    
372.5000      	26845.6376    	2726.63647    
373.0000      	26809.6515    	2508.00000    
373.5000      	26773.7617    	2734.81812    
374.0000      	26737.9679    	3021.36353    
374.5000      	26702.2697    	2689.54541    
375.0000      	26666.6667    	2521.36353    
375.5000      	26631.1585    	2677.45459    
376.0000      	26595.7447    	2635.18188    
376.5000      	26560.4250    	2458.00000    
377.0000      	26525.1989    	2673.54541    
377.5000      	26490.0662    	2657.36353    
378.0000      	26455.0265    	2576.90918    
378.5000      	26420.0793    	2621.09082    
379.0000      	26385.2243    	2647.54541    
379.5000      	26350.4611    	2664.09082    
380.0000      	26315.7895    	2514.81812    
380.5000      	26281.2089    	2581.45459    
381.0000      	26246.7192    	2600.45459    
381.5000      	26212.3198    	2472.09082    
382.0000      	26178.0105    	2668.63647    
382.5000      	26143.7908    	2757.00000    
383.0000      	26109.6606    	2756.45459    
383.5000      	26075.6193    	2591.27271    
384.0000      	26041.6667    	3048.00000    
384.5000      	26007.8023    	2564.18188    
385.0000      	25974.0260    	2542.81812    
385.5000      	25940.3372    	2510.00000    
386.0000      	25906.7358    	2394.81812    
386.5000      	25873.2212    	2613.27271    
387.0000      	25839.7933    	2713.72729    
387.5000      	25806.4516    	2523.72729    
388.0000      	25773.1959    	2720.27271    
388.5000      	25740.0257    	2669.00000    
389.0000      	25706.9409    	2603.27271    
389.5000      	25673.9409    	2758.81812    
390.0000      	25641.0256    	2634.90918    
390.5000      	25608.1946    	2605.81812    
391.0000      	25575.4476    	2644.18188    
391.5000      	25542.7842    	2923.00000    
392.0000      	25510.2041    	2524.45459    
392.5000      	25477.7070    	2497.63647    
393.0000      	25445.2926    	2783.72729    
393.5000      	25412.9606    	2483.09082    
394.0000      	25380.7107    	2921.00000    
394.5000      	25348.5425    	2504.45459    
395.0000      	25316.4557    	2717.36353    
395.5000      	25284.4501    	2631.36353    
396.0000      	25252.5253    	2958.09082    
396.5000      	25220.6810    	2657.18188    
397.0000      	25188.9169    	2769.72729    
397.5000      	25157.2327    	2740.36353    
398.0000      	25125.6281    	2686.18188    
398.5000      	25094.1029    	2523.81812    
399.0000      	25062.6566    	2772.36353    
399.5000      	25031.2891    	2937.72729    
400.0000      	25000.0000    	2782.36353    
400.5000      	24968.7890    	2567.36353    
401.0000      	24937.6559    	2543.45459    
401.5000      	24906.6002    	2762.27271    
402.0000      	24875.6219    	2781.63647    
402.5000      	24844.7205    	2713.72729    
403.0000      	24813.8958    	2365.90918    
403.5000      	24783.1475    	2617.81812    
404.0000      	24752.4752    	2664.45459    
404.5000      	24721.8789    	2916.27271    
405.0000      	24691.3580    	2688.00000    
405.5000      	24660.9125    	2569.18188    
406.0000      	24630.5419    	2510.09082    
406.5000      	24600.2460    	2492.63647    
407.0000      	24570.0246    	2726.72729    
407.5000      	24539.8773    	2480.00000    
408.0000      	24509.8039    	2418.00000    
408.5000      	24479.8042    	2454.72729    
409.0000      	24449.8778    	2421.72729    
409.5000      	24420.0244    	2659.36353    
410.0000      	24390.2439    	2632.90918    
410.5000      	24360.5359    	2763.90918    
411.0000      	24330.9002    	2746.45459    
411.5000      	24301.3366    	2725.81812    
412.0000      	24271.8447    	2829.63647    
412.5000      	24242.4242    	2518.00000    
413.0000      	24213.0751    	2814.63647    
413.5000      	24183.7969    	2685.18188    
414.0000      	24154.5894    	2580.36353    
414.5000      	24125.4524    	2503.36353    
415.0000      	24096.3855    	2392.09082    
415.5000      	24067.3887    	2440.81812    
416.0000      	24038.4615    	2749.90918    
416.5000      	24009.6038    	2734.18188    
417.0000      	23980.8153    	2556.45459    
417.5000      	23952.0958    	2450.45459    
418.0000      	23923.4450    	2728.72729    
418.5000      	23894.8626    	2645.81812    
419.0000      	23866.3484    	2678.81812    
419.5000      	23837.9023    	2512.27271    
420.0000      	23809.5238    	2626.81812    
420.5000      	23781.2128    	2591.36353    
421.0000      	23752.9691    	2542.18188    
421.5000      	23724.7924    	2515.00000    
422.0000      	23696.6825    	2733.63647    
422.5000      	23668.6391    	2633.45459    
423.0000      	23640.6619    	2704.36353    
423.5000      	23612.7509    	2468.81812    
424.0000      	23584.9057    	2658.09082    
424.5000      	23557.1260    	2879.27271    
425.0000      	23529.4118    	2495.45459    
425.5000      	23501.7626    	2337.81812    
426.0000      	23474.1784    	2515.27271    
426.5000      	23446.6589    	2513.72729    
427.0000      	23419.2037    	2599.27271    
427.5000      	23391.8129    	2602.63647    
428.0000      	23364.4860    	2505.27271    
428.5000      	23337.2229    	2555.00000    
429.0000      	23310.0233    	3003.45459    
429.5000      	23282.8871    	2754.45459    
430.0000      	23255.8140    	2618.27271    
430.5000      	23228.8037    	2639.45459    
431.0000      	23201.8561    	2956.18188    
431.5000      	23174.9710    	2506.09082    
432.0000      	23148.1481    	2417.72729    
432.5000      	23121.3873    	2535.63647    
433.0000      	23094.6882    	2321.54541    
433.5000      	23068.0507    	2551.00000    
434.0000      	23041.4747    	2910.54541    
434.5000      	23014.9597    	2487.63647    
435.0000      	22988.5057    	2529.63647    
435.5000      	22962.1125    	2941.45459    
436.0000      	22935.7798    	2744.18188    
436.5000      	22909.5074    	2505.72729    
437.0000      	22883.2952    	2477.27271    
437.5000      	22857.1429    	2542.81812    
438.0000      	22831.0502    	2423.63647    
438.5000      	22805.0171    	2365.81812    
439.0000      	22779.0433    	2393.36353    
439.5000      	22753.1286    	2286.63647    
440.0000      	22727.2727    	2963.09082    
440.5000      	22701.4756    	2758.09082    
441.0000      	22675.7370    	3086.72729    
441.5000      	22650.0566    	2462.81812    
442.0000      	22624.4344    	2442.45459    
442.5000      	22598.8701    	2945.27271    
443.0000      	22573.3634    	2716.54541    
443.5000      	22547.9143    	2703.36353    
444.0000      	22522.5225    	2691.63647    
444.5000      	22497.1879    	2687.45459    
445.0000      	22471.9101    	2781.54541    
445.5000      	22446.6891    	2224.36353    
446.0000      	22421.5247    	2384.45459    
446.5000      	22396.4166    	2691.54541    
447.0000      	22371.3647    	2479.63647    
447.5000      	22346.3687    	2633.81812    
448.0000      	22321.4286    	2663.81812    
448.5000      	22296.5440    	2417.27271    
449.0000      	22271.7149    	2639.81812    
449.5000      	22246.9410    	2956.90918    
450.0000      	22222.2222    	2590.45459    
450.5000      	22197.5583    	2757.27271    
451.0000      	22172.9490    	2776.36353    
451.5000      	22148.3942    	2678.18188    
452.0000      	22123.8938    	2533.36353    
452.5000      	22099.4475    	2521.09082    
453.0000      	22075.0552    	2557.81812    
453.5000      	22050.7166    	2500.27271    
454.0000      	22026.4317    	2385.09082    
454.5000      	22002.2002    	2421.81812    
455.0000      	21978.0220    	2585.09082    
455.5000      	21953.8968    	2652.00000    
456.0000      	21929.8246    	2627.90918    
456.5000      	21905.8050    	2693.81812    
457.0000      	21881.8381    	2904.45459    
457.5000      	21857.9235    	2825.72729    
458.0000      	21834.0611    	2641.63647    
458.5000      	21810.2508    	2459.00000    
459.0000      	21786.4924    	3000.09082    
459.5000      	21762.7856    	2605.72729    
460.0000      	21739.1304    	2820.81812    
460.5000      	21715.5266    	2586.72729    
461.0000      	21691.9740    	2645.54541    
461.5000      	21668.4724    	2967.54541    
462.0000      	21645.0216    	2850.81812    
462.5000      	21621.6216    	2483.09082    
463.0000      	21598.2721    	2704.63647    
463.5000      	21574.9730    	2581.45459    
464.0000      	21551.7241    	2538.54541    
464.5000      	21528.5253    	2763.63647    
465.0000      	21505.3763    	2851.72729    
465.5000      	21482.2771    	2531.27271    
466.0000      	21459.2275    	3642.63647    
466.5000      	21436.2272    	2397.54541    
467.0000      	21413.2762    	2568.36353    
467.5000      	21390.3743    	2913.00000    
468.0000      	21367.5214    	2668.18188    
468.5000      	21344.7172    	2670.45459    
469.0000      	21321.9616    	3102.36353    
469.5000      	21299.2545    	2830.90918    
470.0000      	21276.5957    	2647.09082    
470.5000      	21253.9851    	3020.54541    
471.0000      	21231.4225    	2911.00000    
471.5000      	21208.9077    	2590.54541    
472.0000      	21186.4407    	2509.27271    
472.5000      	21164.0212    	2748.81812    
473.0000      	21141.6490    	2871.72729    
473.5000      	21119.3242    	2734.00000    
474.0000      	21097.0464    	3134.27271    
474.5000      	21074.8156    	2913.09082    
475.0000      	21052.6316    	2606.27271    
475.5000      	21030.4942    	2968.09082    
476.0000      	21008.4034    	2847.81812    
476.5000      	20986.3589    	2912.36353    
477.0000      	20964.3606    	3083.54541    
477.5000      	20942.4084    	3249.27271    
478.0000      	20920.5021    	3310.36353    
478.5000      	20898.6416    	3265.45459    
479.0000      	20876.8267    	3185.72729    
479.5000      	20855.0574    	3197.45459    
480.0000      	20833.3333    	3222.09082    
480.5000      	20811.6545    	3321.81812    
481.0000      	20790.0208    	3459.81812    
481.5000      	20768.4320    	3271.27271    
482.0000      	20746.8880    	3416.63647    
482.5000      	20725.3886    	3794.81812    
483.0000      	20703.9337    	3643.63647    
483.5000      	20682.5233    	3793.63647    
484.0000      	20661.1570    	3850.45459    
484.5000      	20639.8349    	3802.63647    
485.0000      	20618.5567    	3819.18188    
485.5000      	20597.3223    	4142.09082    
486.0000      	20576.1317    	4267.72705    
486.5000      	20554.9846    	3789.36353    
487.0000      	20533.8809    	4078.36353    
487.5000      	20512.8205    	4143.72705    
488.0000      	20491.8033    	4655.09082    
488.5000      	20470.8291    	4231.72705    
489.0000      	20449.8978    	4280.45459    
489.5000      	20429.0092    	4631.63623    
490.0000      	20408.1633    	4699.72705    
490.5000      	20387.3598    	4710.72705    
491.0000      	20366.5988    	4725.00000    
491.5000      	20345.8800    	5093.18164    
492.0000      	20325.2033    	4924.63623    
492.5000      	20304.5685    	4929.81836    
493.0000      	20283.9757    	5480.81836    
493.5000      	20263.4245    	4906.36377    
494.0000      	20242.9150    	5283.54541    
494.5000      	20222.4469    	5505.27295    
495.0000      	20202.0202    	5494.09082    
495.5000      	20181.6347    	5342.72705    
496.0000      	20161.2903    	5731.81836    
496.5000      	20140.9869    	5697.54541    
497.0000      	20120.7243    	5721.36377    
497.5000      	20100.5025    	6162.81836    
498.0000      	20080.3213    	5915.54541    
498.5000      	20060.1805    	5891.72705    
499.0000      	20040.0802    	6561.09082    
499.5000      	20020.0200    	6295.90918    
500.0000      	20000.0000    	6139.18164    
500.5000      	19980.0200    	6361.72705    
501.0000      	19960.0798    	6578.09082    
501.5000      	19940.1795    	6452.54541    
502.0000      	19920.3187    	6619.45459    
502.5000      	19900.4975    	6506.90918    
503.0000      	19880.7157    	6429.45459    
503.5000      	19860.9732    	6665.36377    
504.0000      	19841.2698    	6779.45459    
504.5000      	19821.6056    	7081.18164    
505.0000      	19801.9802    	6943.90918    
505.5000      	19782.3937    	6846.45459    
506.0000      	19762.8458    	6962.36377    
506.5000      	19743.3366    	6793.00000    
507.0000      	19723.8659    	7065.63623    
507.5000      	19704.4335    	7190.63623    
508.0000      	19685.0394    	7277.81836    
508.5000      	19665.6834    	6863.45459    
509.0000      	19646.3654    	7087.81836    
509.5000      	19627.0854    	7403.54541    
510.0000      	19607.8431    	7602.81836    
510.5000      	19588.6386    	7014.54541    
511.0000      	19569.4716    	6933.54541    
511.5000      	19550.3421    	7109.72705    
512.0000      	19531.2500    	7271.54541    
512.5000      	19512.1951    	6612.90918    
513.0000      	19493.1774    	6634.27295    
513.5000      	19474.1967    	6570.09082    
514.0000      	19455.2529    	6620.81836    
514.5000      	19436.3460    	6397.63623    
515.0000      	19417.4757    	6254.72705    
515.5000      	19398.6421    	6573.09082    
516.0000      	19379.8450    	6159.09082    
516.5000      	19361.0842    	6157.54541    
517.0000      	19342.3598    	5920.63623    
517.5000      	19323.6715    	6003.54541    
518.0000      	19305.0193    	5706.00000    
518.5000      	19286.4031    	5552.45459    
519.0000      	19267.8227    	5365.90918    
519.5000      	19249.2782    	5444.36377    
520.0000      	19230.7692    	5284.18164    
520.5000      	19212.2959    	5242.90918    
521.0000      	19193.8580    	5259.81836    
521.5000      	19175.4554    	4953.27295    
522.0000      	19157.0881    	5046.18164    
522.5000      	19138.7560    	4962.45459    
523.0000      	19120.4589    	4879.90918    
523.5000      	19102.1968    	4639.54541    
524.0000      	19083.9695    	4622.00000    
524.5000      	19065.7769    	4489.54541    
525.0000      	19047.6190    	4539.90918    
525.5000      	19029.4957    	4184.27295    
526.0000      	19011.4068    	4119.72705    
526.5000      	18993.3523    	4646.36377    
527.0000      	18975.3321    	4092.36353    
527.5000      	18957.3460    	3732.27271    
528.0000      	18939.3939    	4050.81812    
528.5000      	18921.4759    	4229.36377    
529.0000      	18903.5917    	3889.72729    
529.5000      	18885.7413    	3952.09082    
530.0000      	18867.9245    	3788.27271    
530.5000      	18850.1414    	3608.72729    
531.0000      	18832.3917    	3900.72729    
531.5000      	18814.6754    	3706.09082    
532.0000      	18796.9925    	3775.00000    
532.5000      	18779.3427    	3557.36353    
533.0000      	18761.7261    	3515.36353    
533.5000      	18744.1425    	3421.27271    
534.0000      	18726.5918    	3540.72729    
534.5000      	18709.0739    	3334.27271    
535.0000      	18691.5888    	3570.00000    
535.5000      	18674.1363    	3208.27271    
536.0000      	18656.7164    	3458.54541    
536.5000      	18639.3290    	3228.27271    
537.0000      	18621.9739    	3218.63647    
537.5000      	18604.6512    	3220.72729    
538.0000      	18587.3606    	3127.09082    
538.5000      	18570.1021    	3069.36353    
539.0000      	18552.8757    	3088.18188    
539.5000      	18535.6812    	3187.18188    
540.0000      	18518.5185    	2835.18188    
540.5000      	18501.3876    	2925.54541    
541.0000      	18484.2884    	3122.81812    
541.5000      	18467.2207    	2976.63647    
542.0000      	18450.1845    	3092.00000    
542.5000      	18433.1797    	2723.72729    
543.0000      	18416.2063    	2996.45459    
543.5000      	18399.2640    	3013.27271    
544.0000      	18382.3529    	2812.81812    
544.5000      	18365.4729    	2718.00000    
545.0000      	18348.6239    	3069.54541    
545.5000      	18331.8057    	2837.54541    
546.0000      	18315.0183    	3090.00000    
546.5000      	18298.2617    	2757.45459    
547.0000      	18281.5356    	2748.90918    
547.5000      	18264.8402    	2786.90918    
548.0000      	18248.1752    	2817.45459    
548.5000      	18231.5406    	2627.00000    
549.0000      	18214.9362    	2841.72729    
549.5000      	18198.3621    	2905.00000    
550.0000      	18181.8182    	2672.54541    
550.5000      	18165.3043    	2781.00000    
551.0000      	18148.8203    	2441.54541    
551.5000      	18132.3663    	2684.90918    
552.0000      	18115.9420    	2521.54541    
552.5000      	18099.5475    	2581.09082    
553.0000      	18083.1826    	2455.09082    
553.5000      	18066.8473    	3150.09082    
554.0000      	18050.5415    	2862.90918    
554.5000      	18034.2651    	2685.90918    
555.0000      	18018.0180    	2459.18188    
555.5000      	18001.8002    	2500.72729    
556.0000      	17985.6115    	2414.09082    
556.5000      	17969.4519    	2414.18188    
557.0000      	17953.3214    	2520.72729    
557.5000      	17937.2197    	2567.18188    
558.0000      	17921.1470    	2584.54541    
558.5000      	17905.1030    	2559.27271    
559.0000      	17889.0877    	2611.45459    
559.5000      	17873.1010    	2952.09082    
560.0000      	17857.1429    	2769.90918    
560.5000      	17841.2132    	2542.63647    
561.0000      	17825.3119    	2773.36353    
561.5000      	17809.4390    	2328.54541    
562.0000      	17793.5943    	2709.27271    
562.5000      	17777.7778    	2699.27271    
563.0000      	17761.9893    	2608.63647    
563.5000      	17746.2289    	2381.00000    
