Unit Serial No : 240-LV0P465-EU
Integration Time : 113 ms
Time Average: 11
Binning Average: 0
FFT Smoothing: 0%
Project Name : Project Name
Sample Name : Sample Name
Measurement No : 1
Measurement Time : 09/18/2007   09:22:52

Wavelength(nm)	Wavenumber(1/cm)	Intensity(Counts)
350.0000      	28571.4286    	2081.00000    
350.5000      	28530.6705    	2039.72729    
351.0000      	28490.0285    	2016.18176    
351.5000      	28449.5021    	2046.36365    
352.0000      	28409.0909    	2036.54541    
352.5000      	28368.7943    	1987.81824    
353.0000      	28328.6119    	1922.09094    
353.5000      	28288.5431    	2024.09094    
354.0000      	28248.5876    	1914.27271    
354.5000      	28208.7447    	1912.90906    
355.0000      	28169.0141    	1961.09094    
355.5000      	28129.3952    	1978.72729    
356.0000      	28089.8876    	1840.18176    
356.5000      	28050.4909    	1917.27271    
357.0000      	28011.2045    	1932.18176    
357.5000      	27972.0280    	1930.81824    
358.0000      	27932.9609    	1947.27271    
358.5000      	27894.0028    	2156.81812    
359.0000      	27855.1532    	1946.45459    
359.5000      	27816.4117    	2012.27271    
360.0000      	27777.7778    	1963.81824    
360.5000      	27739.2510    	1999.72729    
361.0000      	27700.8310    	1977.18176    
361.5000      	27662.5173    	2097.72729    
362.0000      	27624.3094    	1983.90906    
362.5000      	27586.2069    	2055.81812    
363.0000      	27548.2094    	2064.63647    
363.5000      	27510.3164    	1924.54541    
364.0000      	27472.5275    	1816.54541    
364.5000      	27434.8422    	1864.63635    
365.0000      	27397.2603    	1914.63635    
365.5000      	27359.7811    	2005.36365    
366.0000      	27322.4044    	2032.36365    
366.5000      	27285.1296    	1984.63635    
367.0000      	27247.9564    	1979.45459    
367.5000      	27210.8844    	2073.45459    
368.0000      	27173.9130    	1964.72729    
368.5000      	27137.0421    	2122.27271    
369.0000      	27100.2710    	1969.09094    
369.5000      	27063.5995    	1970.27271    
370.0000      	27027.0270    	2112.63647    
370.5000      	26990.5533    	1872.90906    
371.0000      	26954.1779    	2011.09094    
371.5000      	26917.9004    	1930.09094    
372.0000      	26881.7204    	1941.45459    
372.5000      	26845.6376    	1986.54541    
373.0000      	26809.6515    	1889.72729    
373.5000      	26773.7617    	2012.63635    
374.0000      	26737.9679    	2155.54541    
374.5000      	26702.2697    	1993.36365    
375.0000      	26666.6667    	1937.36365    
375.5000      	26631.1585    	1973.18176    
376.0000      	26595.7447    	1961.00000    
376.5000      	26560.4250    	1904.18176    
377.0000      	26525.1989    	1981.63635    
377.5000      	26490.0662    	1996.18176    
378.0000      	26455.0265    	1932.18176    
378.5000      	26420.0793    	1927.81824    
379.0000      	26385.2243    	1977.81824    
379.5000      	26350.4611    	1984.00000    
380.0000      	26315.7895    	1913.00000    
380.5000      	26281.2089    	1962.72729    
381.0000      	26246.7192    	1947.81824    
381.5000      	26212.3198    	1911.63635    
382.0000      	26178.0105    	1973.27271    
382.5000      	26143.7908    	2041.18176    
383.0000      	26109.6606    	2062.81812    
383.5000      	26075.6193    	1970.00000    
384.0000      	26041.6667    	2126.27271    
384.5000      	26007.8023    	1947.09094    
385.0000      	25974.0260    	1952.18176    
385.5000      	25940.3372    	1945.18176    
386.0000      	25906.7358    	1893.54541    
386.5000      	25873.2212    	1949.00000    
387.0000      	25839.7933    	2004.09094    
387.5000      	25806.4516    	1912.90906    
388.0000      	25773.1959    	2000.00000    
388.5000      	25740.0257    	2017.90906    
389.0000      	25706.9409    	1990.81824    
389.5000      	25673.9409    	1997.72729    
390.0000      	25641.0256    	1944.18176    
390.5000      	25608.1946    	1954.90906    
391.0000      	25575.4476    	1991.45459    
391.5000      	25542.7842    	2086.18188    
392.0000      	25510.2041    	1945.72729    
392.5000      	25477.7070    	1920.45459    
393.0000      	25445.2926    	2036.36365    
393.5000      	25412.9606    	1914.81824    
394.0000      	25380.7107    	2105.63647    
394.5000      	25348.5425    	1927.90906    
395.0000      	25316.4557    	2006.81824    
395.5000      	25284.4501    	1965.18176    
396.0000      	25252.5253    	2136.45459    
396.5000      	25220.6810    	1977.36365    
397.0000      	25188.9169    	2054.18188    
397.5000      	25157.2327    	2046.09094    
398.0000      	25125.6281    	1980.36365    
398.5000      	25094.1029    	1943.09094    
399.0000      	25062.6566    	2005.09094    
399.5000      	25031.2891    	2100.09082    
400.0000      	25000.0000    	2035.54541    
400.5000      	24968.7890    	1942.63635    
401.0000      	24937.6559    	1944.54541    
401.5000      	24906.6002    	2037.27271    
402.0000      	24875.6219    	2112.45459    
402.5000      	24844.7205    	2002.09094    
403.0000      	24813.8958    	1876.09094    
403.5000      	24783.1475    	2005.09094    
404.0000      	24752.4752    	1984.36365    
404.5000      	24721.8789    	2078.54541    
405.0000      	24691.3580    	2001.63635    
405.5000      	24660.9125    	1974.18176    
406.0000      	24630.5419    	1966.45459    
406.5000      	24600.2460    	1914.90906    
407.0000      	24570.0246    	2032.63635    
407.5000      	24539.8773    	1956.45459    
408.0000      	24509.8039    	1926.18176    
408.5000      	24479.8042    	1961.18176    
409.0000      	24449.8778    	1915.00000    
409.5000      	24420.0244    	1969.18176    
410.0000      	24390.2439    	1987.81824    
410.5000      	24360.5359    	2106.72729    
411.0000      	24330.9002    	2072.00000    
411.5000      	24301.3366    	2067.63647    
412.0000      	24271.8447    	2117.18188    
412.5000      	24242.4242    	1977.90906    
413.0000      	24213.0751    	2090.09082    
413.5000      	24183.7969    	2045.54541    
414.0000      	24154.5894    	2035.18176    
414.5000      	24125.4524    	1994.27271    
415.0000      	24096.3855    	1943.63635    
415.5000      	24067.3887    	2009.81824    
416.0000      	24038.4615    	2083.72729    
416.5000      	24009.6038    	2085.00000    
417.0000      	23980.8153    	2058.90918    
417.5000      	23952.0958    	2007.72729    
418.0000      	23923.4450    	2143.54541    
418.5000      	23894.8626    	2113.27271    
419.0000      	23866.3484    	2111.45459    
419.5000      	23837.9023    	2079.54541    
420.0000      	23809.5238    	2161.18188    
420.5000      	23781.2128    	2218.54541    
421.0000      	23752.9691    	2169.81812    
421.5000      	23724.7924    	2134.54541    
422.0000      	23696.6825    	2285.27271    
422.5000      	23668.6391    	2274.36353    
423.0000      	23640.6619    	2294.27271    
423.5000      	23612.7509    	2245.36353    
424.0000      	23584.9057    	2360.45459    
424.5000      	23557.1260    	2461.36353    
425.0000      	23529.4118    	2379.54541    
425.5000      	23501.7626    	2395.45459    
426.0000      	23474.1784    	2431.45459    
426.5000      	23446.6589    	2478.45459    
427.0000      	23419.2037    	2560.18188    
427.5000      	23391.8129    	2698.81812    
428.0000      	23364.4860    	2650.00000    
428.5000      	23337.2229    	2700.81812    
429.0000      	23310.0233    	2989.81812    
429.5000      	23282.8871    	2952.45459    
430.0000      	23255.8140    	2916.90918    
430.5000      	23228.8037    	2998.27271    
431.0000      	23201.8561    	3159.36353    
431.5000      	23174.9710    	3094.63647    
432.0000      	23148.1481    	3177.81812    
432.5000      	23121.3873    	3325.63647    
433.0000      	23094.6882    	3325.63647    
433.5000      	23068.0507    	3520.00000    
434.0000      	23041.4747    	3770.63647    
434.5000      	23014.9597    	3750.00000    
435.0000      	22988.5057    	4068.72729    
435.5000      	22962.1125    	4361.27295    
436.0000      	22935.7798    	4414.09082    
436.5000      	22909.5074    	4512.54541    
437.0000      	22883.2952    	4691.36377    
437.5000      	22857.1429    	4959.45459    
438.0000      	22831.0502    	5152.63623    
438.5000      	22805.0171    	5334.63623    
439.0000      	22779.0433    	5567.00000    
439.5000      	22753.1286    	5884.63623    
440.0000      	22727.2727    	6259.81836    
440.5000      	22701.4756    	6332.63623    
441.0000      	22675.7370    	6694.36377    
441.5000      	22650.0566    	6673.36377    
442.0000      	22624.4344    	7042.81836    
442.5000      	22598.8701    	7390.00000    
443.0000      	22573.3634    	7567.45459    
443.5000      	22547.9143    	7972.90918    
444.0000      	22522.5225    	8124.36377    
444.5000      	22497.1879    	8459.90918    
445.0000      	22471.9101    	9100.45410    
445.5000      	22446.6891    	9173.09082    
446.0000      	22421.5247    	9657.63672    
446.5000      	22396.4166    	10536.18164   
447.0000      	22371.3647    	10647.09082   
447.5000      	22346.3687    	10689.00000   
448.0000      	22321.4286    	11268.90918   
448.5000      	22296.5440    	11757.27246   
449.0000      	22271.7149    	12316.63672   
449.5000      	22246.9410    	12727.72754   
450.0000      	22222.2222    	13363.27246   
450.5000      	22197.5583    	13576.09082   
451.0000      	22172.9490    	13686.00000   
451.5000      	22148.3942    	14108.72754   
452.0000      	22123.8938    	14126.18164   
452.5000      	22099.4475    	14035.36328   
453.0000      	22075.0552    	14545.54590   
453.5000      	22050.7166    	14985.09082   
454.0000      	22026.4317    	15557.36328   
454.5000      	22002.2002    	15650.63672   
455.0000      	21978.0220    	16069.90918   
455.5000      	21953.8968    	15973.81836   
456.0000      	21929.8246    	16667.36328   
456.5000      	21905.8050    	17246.27344   
457.0000      	21881.8381    	17763.63672   
457.5000      	21857.9235    	17774.18164   
458.0000      	21834.0611    	18175.81836   
458.5000      	21810.2508    	17764.72656   
459.0000      	21786.4924    	18030.18164   
459.5000      	21762.7856    	18155.45508   
460.0000      	21739.1304    	18606.63672   
460.5000      	21715.5266    	18097.18164   
461.0000      	21691.9740    	18208.36328   
461.5000      	21668.4724    	18078.36328   
462.0000      	21645.0216    	18488.54492   
462.5000      	21621.6216    	18488.72656   
463.0000      	21598.2721    	17867.90820   
463.5000      	21574.9730    	17673.36328   
464.0000      	21551.7241    	17424.00000   
464.5000      	21528.5253    	17698.45508   
465.0000      	21505.3763    	18176.72656   
465.5000      	21482.2771    	17255.18164   
466.0000      	21459.2275    	17705.27344   
466.5000      	21436.2272    	16621.09180   
467.0000      	21413.2762    	16763.27344   
467.5000      	21390.3743    	16754.45508   
468.0000      	21367.5214    	16350.45410   
468.5000      	21344.7172    	15808.81836   
469.0000      	21321.9616    	16217.18164   
469.5000      	21299.2545    	15613.18164   
470.0000      	21276.5957    	15483.63672   
470.5000      	21253.9851    	15450.72754   
471.0000      	21231.4225    	15154.27246   
471.5000      	21208.9077    	14368.09082   
472.0000      	21186.4407    	14045.81836   
472.5000      	21164.0212    	13930.81836   
473.0000      	21141.6490    	13814.81836   
473.5000      	21119.3242    	13042.90918   
474.0000      	21097.0464    	13076.18164   
474.5000      	21074.8156    	12421.27246   
475.0000      	21052.6316    	11889.45410   
475.5000      	21030.4942    	11863.27246   
476.0000      	21008.4034    	11294.54590   
476.5000      	20986.3589    	11179.09082   
477.0000      	20964.3606    	10922.54590   
477.5000      	20942.4084    	10600.54590   
478.0000      	20920.5021    	10476.09082   
478.5000      	20898.6416    	10192.81836   
479.0000      	20876.8267    	9761.00000    
479.5000      	20855.0574    	9719.00000    
480.0000      	20833.3333    	9728.18164    
480.5000      	20811.6545    	9530.54590    
481.0000      	20790.0208    	9311.72754    
481.5000      	20768.4320    	8862.81836    
482.0000      	20746.8880    	8841.81836    
482.5000      	20725.3886    	8809.09082    
483.0000      	20703.9337    	8480.81836    
483.5000      	20682.5233    	8351.27246    
484.0000      	20661.1570    	8022.09082    
484.5000      	20639.8349    	7727.27295    
485.0000      	20618.5567    	7619.18164    
485.5000      	20597.3223    	7379.63623    
486.0000      	20576.1317    	7092.45459    
486.5000      	20554.9846    	6672.09082    
487.0000      	20533.8809    	6464.72705    
487.5000      	20512.8205    	6215.54541    
488.0000      	20491.8033    	6256.90918    
488.5000      	20470.8291    	5811.45459    
489.0000      	20449.8978    	5596.63623    
489.5000      	20429.0092    	5562.63623    
490.0000      	20408.1633    	5354.18164    
490.5000      	20387.3598    	5179.00000    
491.0000      	20366.5988    	5079.09082    
491.5000      	20345.8800    	5030.63623    
492.0000      	20325.2033    	4791.18164    
492.5000      	20304.5685    	4640.72705    
493.0000      	20283.9757    	4724.72705    
493.5000      	20263.4245    	4430.54541    
494.0000      	20242.9150    	4431.36377    
494.5000      	20222.4469    	4357.72705    
495.0000      	20202.0202    	4256.00000    
495.5000      	20181.6347    	4049.72729    
496.0000      	20161.2903    	4094.45459    
496.5000      	20140.9869    	4031.63647    
497.0000      	20120.7243    	3842.18188    
497.5000      	20100.5025    	3910.72729    
498.0000      	20080.3213    	3690.27271    
498.5000      	20060.1805    	3587.45459    
499.0000      	20040.0802    	3725.63647    
499.5000      	20020.0200    	3552.90918    
500.0000      	20000.0000    	3364.09082    
500.5000      	19980.0200    	3324.09082    
501.0000      	19960.0798    	3273.45459    
501.5000      	19940.1795    	3137.09082    
502.0000      	19920.3187    	3133.72729    
502.5000      	19900.4975    	3022.27271    
503.0000      	19880.7157    	2835.63647    
503.5000      	19860.9732    	2837.36353    
504.0000      	19841.2698    	2811.81812    
504.5000      	19821.6056    	2889.81812    
505.0000      	19801.9802    	2783.90918    
505.5000      	19782.3937    	2700.45459    
506.0000      	19762.8458    	2646.63647    
506.5000      	19743.3366    	2520.54541    
507.0000      	19723.8659    	2617.72729    
507.5000      	19704.4335    	2672.18188    
508.0000      	19685.0394    	2665.63647    
508.5000      	19665.6834    	2443.72729    
509.0000      	19646.3654    	2486.27271    
509.5000      	19627.0854    	2655.54541    
510.0000      	19607.8431    	2730.00000    
510.5000      	19588.6386    	2478.54541    
511.0000      	19569.4716    	2445.00000    
511.5000      	19550.3421    	2543.09082    
512.0000      	19531.2500    	2569.72729    
512.5000      	19512.1951    	2302.72729    
513.0000      	19493.1774    	2314.81812    
513.5000      	19474.1967    	2280.90918    
514.0000      	19455.2529    	2340.81812    
514.5000      	19436.3460    	2267.00000    
515.0000      	19417.4757    	2203.90918    
515.5000      	19398.6421    	2341.36353    
516.0000      	19379.8450    	2204.54541    
516.5000      	19361.0842    	2236.90918    
517.0000      	19342.3598    	2156.90918    
517.5000      	19323.6715    	2224.45459    
518.0000      	19305.0193    	2117.72729    
518.5000      	19286.4031    	2077.36353    
519.0000      	19267.8227    	2013.09094    
519.5000      	19249.2782    	2120.18188    
520.0000      	19230.7692    	2092.90918    
520.5000      	19212.2959    	2089.81812    
521.0000      	19193.8580    	2095.63647    
521.5000      	19175.4554    	2039.90906    
522.0000      	19157.0881    	2087.27271    
522.5000      	19138.7560    	2119.27271    
523.0000      	19120.4589    	2105.18188    
523.5000      	19102.1968    	2026.54541    
524.0000      	19083.9695    	2039.81824    
524.5000      	19065.7769    	1997.72729    
525.0000      	19047.6190    	2054.72729    
525.5000      	19029.4957    	1953.00000    
526.0000      	19011.4068    	1955.90906    
526.5000      	18993.3523    	2166.18188    
527.0000      	18975.3321    	1990.27271    
527.5000      	18957.3460    	1863.81824    
528.0000      	18939.3939    	2008.36365    
528.5000      	18921.4759    	2063.72729    
529.0000      	18903.5917    	1975.63635    
529.5000      	18885.7413    	1997.18176    
530.0000      	18867.9245    	1942.63635    
530.5000      	18850.1414    	1933.00000    
531.0000      	18832.3917    	2053.09082    
531.5000      	18814.6754    	2007.90906    
532.0000      	18796.9925    	2028.36365    
532.5000      	18779.3427    	1959.72729    
533.0000      	18761.7261    	1936.36365    
533.5000      	18744.1425    	1908.54541    
534.0000      	18726.5918    	1964.63635    
534.5000      	18709.0739    	1947.00000    
535.0000      	18691.5888    	2075.09082    
535.5000      	18674.1363    	1915.45459    
536.0000      	18656.7164    	2039.90906    
536.5000      	18639.3290    	1939.72729    
537.0000      	18621.9739    	1944.90906    
537.5000      	18604.6512    	1954.36365    
538.0000      	18587.3606    	1921.36365    
538.5000      	18570.1021    	1889.63635    
539.0000      	18552.8757    	1902.18176    
539.5000      	18535.6812    	1979.45459    
540.0000      	18518.5185    	1858.63635    
540.5000      	18501.3876    	1922.81824    
541.0000      	18484.2884    	2007.09094    
541.5000      	18467.2207    	1926.27271    
542.0000      	18450.1845    	1989.72729    
542.5000      	18433.1797    	1863.81824    
543.0000      	18416.2063    	1964.72729    
543.5000      	18399.2640    	1981.54541    
544.0000      	18382.3529    	1916.27271    
544.5000      	18365.4729    	1872.72729    
545.0000      	18348.6239    	2029.27271    
545.5000      	18331.8057    	1941.09094    
546.0000      	18315.0183    	2050.90918    
546.5000      	18298.2617    	1917.18176    
547.0000      	18281.5356    	1924.27271    
547.5000      	18264.8402    	1940.18176    
548.0000      	18248.1752    	1931.63635    
548.5000      	18231.5406    	1873.90906    
549.0000      	18214.9362    	1975.18176    
549.5000      	18198.3621    	2004.63635    
550.0000      	18181.8182    	1918.00000    
550.5000      	18165.3043    	1953.81824    
551.0000      	18148.8203    	1821.09094    
551.5000      	18132.3663    	1918.90906    
552.0000      	18115.9420    	1879.18176    
552.5000      	18099.5475    	1913.00000    
553.0000      	18083.1826    	1847.63635    
553.5000      	18066.8473    	2108.72729    
554.0000      	18050.5415    	2002.45459    
554.5000      	18034.2651    	1948.00000    
555.0000      	18018.0180    	1870.36365    
555.5000      	18001.8002    	1875.54541    
556.0000      	17985.6115    	1829.90906    
556.5000      	17969.4519    	1815.27271    
557.0000      	17953.3214    	1871.90906    
557.5000      	17937.2197    	1903.45459    
558.0000      	17921.1470    	1925.90906    
558.5000      	17905.1030    	1921.36365    
559.0000      	17889.0877    	1936.81824    
559.5000      	17873.1010    	2061.45459    
560.0000      	17857.1429    	1996.27271    
560.5000      	17841.2132    	1895.36365    
561.0000      	17825.3119    	2010.63635    
561.5000      	17809.4390    	1818.63635    
562.0000      	17793.5943    	1983.27271    
562.5000      	17777.7778    	1969.27271    
563.0000      	17761.9893    	1888.81824    
563.5000      	17746.2289    	1824.36365    
