Unit Serial No : 240-LV0P465-EU
Integration Time : 249 ms
Time Average: 11
Binning Average: 0
FFT Smoothing: 0%
Project Name : Project Name
Sample Name : Sample Name
Measurement No : 1
Measurement Time : 09/18/2007   09:27:23

Wavelength(nm)	Wavenumber(1/cm)	Intensity(Counts)
350.0000      	28571.4286    	2872.45459    
350.5000      	28530.6705    	2831.18188    
351.0000      	28490.0285    	2775.36353    
351.5000      	28449.5021    	2814.18188    
352.0000      	28409.0909    	2701.90918    
352.5000      	28368.7943    	2735.09082    
353.0000      	28328.6119    	2618.90918    
353.5000      	28288.5431    	2788.27271    
354.0000      	28248.5876    	2466.81812    
354.5000      	28208.7447    	2478.09082    
355.0000      	28169.0141    	2589.00000    
355.5000      	28129.3952    	2704.18188    
356.0000      	28089.8876    	2323.45459    
356.5000      	28050.4909    	2549.81812    
357.0000      	28011.2045    	2508.09082    
357.5000      	27972.0280    	2536.81812    
358.0000      	27932.9609    	2603.27271    
358.5000      	27894.0028    	3085.81812    
359.0000      	27855.1532    	2640.18188    
359.5000      	27816.4117    	2722.45459    
360.0000      	27777.7778    	2626.00000    
360.5000      	27739.2510    	2699.63647    
361.0000      	27700.8310    	2680.18188    
361.5000      	27662.5173    	2947.27271    
362.0000      	27624.3094    	2706.18188    
362.5000      	27586.2069    	2861.09082    
363.0000      	27548.2094    	2882.45459    
363.5000      	27510.3164    	2526.00000    
364.0000      	27472.5275    	2276.72729    
364.5000      	27434.8422    	2438.18188    
365.0000      	27397.2603    	2562.18188    
365.5000      	27359.7811    	2743.90918    
366.0000      	27322.4044    	2767.36353    
366.5000      	27285.1296    	2659.90918    
367.0000      	27247.9564    	2654.72729    
367.5000      	27210.8844    	2970.00000    
368.0000      	27173.9130    	2653.27271    
368.5000      	27137.0421    	2990.90918    
369.0000      	27100.2710    	2649.45459    
369.5000      	27063.5995    	2606.90918    
370.0000      	27027.0270    	2994.63647    
370.5000      	26990.5533    	2412.18188    
371.0000      	26954.1779    	2719.00000    
371.5000      	26917.9004    	2497.81812    
372.0000      	26881.7204    	2527.72729    
372.5000      	26845.6376    	2755.72729    
373.0000      	26809.6515    	2524.72729    
373.5000      	26773.7617    	2770.63647    
374.0000      	26737.9679    	3044.81812    
374.5000      	26702.2697    	2686.54541    
375.0000      	26666.6667    	2539.81812    
375.5000      	26631.1585    	2702.09082    
376.0000      	26595.7447    	2670.63647    
376.5000      	26560.4250    	2472.18188    
377.0000      	26525.1989    	2689.81812    
377.5000      	26490.0662    	2686.18188    
378.0000      	26455.0265    	2606.27271    
378.5000      	26420.0793    	2668.72729    
379.0000      	26385.2243    	2642.54541    
379.5000      	26350.4611    	2696.09082    
380.0000      	26315.7895    	2551.27271    
380.5000      	26281.2089    	2618.00000    
381.0000      	26246.7192    	2624.45459    
381.5000      	26212.3198    	2499.27271    
382.0000      	26178.0105    	2663.90918    
382.5000      	26143.7908    	2794.36353    
383.0000      	26109.6606    	2806.18188    
383.5000      	26075.6193    	2579.27271    
384.0000      	26041.6667    	3065.90918    
384.5000      	26007.8023    	2601.36353    
385.0000      	25974.0260    	2590.36353    
385.5000      	25940.3372    	2573.63647    
386.0000      	25906.7358    	2419.45459    
386.5000      	25873.2212    	2648.90918    
387.0000      	25839.7933    	2740.27271    
387.5000      	25806.4516    	2538.45459    
388.0000      	25773.1959    	2741.81812    
388.5000      	25740.0257    	2714.00000    
389.0000      	25706.9409    	2626.27271    
389.5000      	25673.9409    	2748.72729    
390.0000      	25641.0256    	2637.54541    
390.5000      	25608.1946    	2666.18188    
391.0000      	25575.4476    	2652.27271    
391.5000      	25542.7842    	2918.63647    
392.0000      	25510.2041    	2553.45459    
392.5000      	25477.7070    	2564.27271    
393.0000      	25445.2926    	2824.00000    
393.5000      	25412.9606    	2523.09082    
394.0000      	25380.7107    	2960.45459    
394.5000      	25348.5425    	2501.81812    
395.0000      	25316.4557    	2749.27271    
395.5000      	25284.4501    	2660.54541    
396.0000      	25252.5253    	2972.81812    
396.5000      	25220.6810    	2684.90918    
397.0000      	25188.9169    	2785.63647    
397.5000      	25157.2327    	2762.63647    
398.0000      	25125.6281    	2699.72729    
398.5000      	25094.1029    	2572.72729    
399.0000      	25062.6566    	2792.18188    
399.5000      	25031.2891    	2935.18188    
400.0000      	25000.0000    	2817.72729    
400.5000      	24968.7890    	2618.36353    
401.0000      	24937.6559    	2581.09082    
401.5000      	24906.6002    	2802.00000    
402.0000      	24875.6219    	2822.27271    
402.5000      	24844.7205    	2734.45459    
403.0000      	24813.8958    	2388.27271    
403.5000      	24783.1475    	2672.36353    
404.0000      	24752.4752    	2692.18188    
404.5000      	24721.8789    	2932.81812    
405.0000      	24691.3580    	2735.18188    
405.5000      	24660.9125    	2596.18188    
406.0000      	24630.5419    	2536.54541    
406.5000      	24600.2460    	2544.36353    
407.0000      	24570.0246    	2753.36353    
407.5000      	24539.8773    	2516.72729    
408.0000      	24509.8039    	2471.09082    
408.5000      	24479.8042    	2523.54541    
409.0000      	24449.8778    	2480.36353    
409.5000      	24420.0244    	2681.54541    
410.0000      	24390.2439    	2678.54541    
410.5000      	24360.5359    	2809.27271    
411.0000      	24330.9002    	2777.72729    
411.5000      	24301.3366    	2755.00000    
412.0000      	24271.8447    	2877.63647    
412.5000      	24242.4242    	2568.45459    
413.0000      	24213.0751    	2819.36353    
413.5000      	24183.7969    	2715.90918    
414.0000      	24154.5894    	2641.09082    
414.5000      	24125.4524    	2548.81812    
415.0000      	24096.3855    	2421.54541    
415.5000      	24067.3887    	2510.00000    
416.0000      	24038.4615    	2764.72729    
416.5000      	24009.6038    	2749.27271    
417.0000      	23980.8153    	2591.27271    
417.5000      	23952.0958    	2503.00000    
418.0000      	23923.4450    	2829.18188    
418.5000      	23894.8626    	2703.09082    
419.0000      	23866.3484    	2708.90918    
419.5000      	23837.9023    	2501.72729    
420.0000      	23809.5238    	2686.81812    
420.5000      	23781.2128    	2672.81812    
421.0000      	23752.9691    	2610.81812    
421.5000      	23724.7924    	2588.00000    
422.0000      	23696.6825    	2789.09082    
422.5000      	23668.6391    	2697.90918    
423.0000      	23640.6619    	2769.27271    
423.5000      	23612.7509    	2530.36353    
424.0000      	23584.9057    	2730.18188    
424.5000      	23557.1260    	2935.54541    
425.0000      	23529.4118    	2555.36353    
425.5000      	23501.7626    	2423.18188    
426.0000      	23474.1784    	2596.90918    
426.5000      	23446.6589    	2606.45459    
427.0000      	23419.2037    	2692.72729    
427.5000      	23391.8129    	2698.18188    
428.0000      	23364.4860    	2583.72729    
428.5000      	23337.2229    	2653.27271    
429.0000      	23310.0233    	3113.27271    
429.5000      	23282.8871    	2840.27271    
430.0000      	23255.8140    	2719.72729    
430.5000      	23228.8037    	2695.54541    
431.0000      	23201.8561    	3017.36353    
431.5000      	23174.9710    	2584.09082    
432.0000      	23148.1481    	2478.90918    
432.5000      	23121.3873    	2641.81812    
433.0000      	23094.6882    	2415.90918    
433.5000      	23068.0507    	2653.54541    
434.0000      	23041.4747    	3005.72729    
434.5000      	23014.9597    	2605.81812    
435.0000      	22988.5057    	2620.36353    
435.5000      	22962.1125    	3059.90918    
436.0000      	22935.7798    	2828.18188    
436.5000      	22909.5074    	2572.00000    
437.0000      	22883.2952    	2553.63647    
437.5000      	22857.1429    	2644.90918    
438.0000      	22831.0502    	2538.81812    
438.5000      	22805.0171    	2453.18188    
439.0000      	22779.0433    	2453.00000    
439.5000      	22753.1286    	2390.63647    
440.0000      	22727.2727    	3064.36353    
440.5000      	22701.4756    	2847.81812    
441.0000      	22675.7370    	3154.09082    
441.5000      	22650.0566    	2565.81812    
442.0000      	22624.4344    	2542.81812    
442.5000      	22598.8701    	3036.27271    
443.0000      	22573.3634    	2809.27271    
443.5000      	22547.9143    	2810.09082    
444.0000      	22522.5225    	2792.81812    
444.5000      	22497.1879    	2800.72729    
445.0000      	22471.9101    	2867.72729    
445.5000      	22446.6891    	2369.72729    
446.0000      	22421.5247    	2481.27271    
446.5000      	22396.4166    	2827.45459    
447.0000      	22371.3647    	2606.54541    
447.5000      	22346.3687    	2761.09082    
448.0000      	22321.4286    	2798.54541    
448.5000      	22296.5440    	2568.81812    
449.0000      	22271.7149    	2787.63647    
449.5000      	22246.9410    	3075.81812    
450.0000      	22222.2222    	2726.36353    
450.5000      	22197.5583    	2903.18188    
451.0000      	22172.9490    	2937.81812    
451.5000      	22148.3942    	2855.00000    
452.0000      	22123.8938    	2712.90918    
452.5000      	22099.4475    	2689.45459    
453.0000      	22075.0552    	2748.81812    
453.5000      	22050.7166    	2647.90918    
454.0000      	22026.4317    	2576.54541    
454.5000      	22002.2002    	2624.45459    
455.0000      	21978.0220    	2807.27271    
455.5000      	21953.8968    	2900.90918    
456.0000      	21929.8246    	2936.63647    
456.5000      	21905.8050    	2994.18188    
457.0000      	21881.8381    	3202.27271    
457.5000      	21857.9235    	3120.18188    
458.0000      	21834.0611    	3002.63647    
458.5000      	21810.2508    	2766.18188    
459.0000      	21786.4924    	3353.09082    
459.5000      	21762.7856    	2973.63647    
460.0000      	21739.1304    	3224.63647    
460.5000      	21715.5266    	3038.18188    
461.0000      	21691.9740    	3091.45459    
461.5000      	21668.4724    	3421.45459    
462.0000      	21645.0216    	3368.18188    
462.5000      	21621.6216    	3071.90918    
463.0000      	21598.2721    	3300.27271    
463.5000      	21574.9730    	3264.54541    
464.0000      	21551.7241    	3228.00000    
464.5000      	21528.5253    	3527.09082    
465.0000      	21505.3763    	3669.45459    
465.5000      	21482.2771    	3406.90918    
466.0000      	21459.2275    	4454.72705    
466.5000      	21436.2272    	3394.63647    
467.0000      	21413.2762    	3640.00000    
467.5000      	21390.3743    	4048.27271    
468.0000      	21367.5214    	3903.00000    
468.5000      	21344.7172    	3906.63647    
469.0000      	21321.9616    	4486.72705    
469.5000      	21299.2545    	4301.36377    
470.0000      	21276.5957    	4167.81836    
470.5000      	21253.9851    	4714.81836    
471.0000      	21231.4225    	4745.63623    
471.5000      	21208.9077    	4516.36377    
472.0000      	21186.4407    	4615.18164    
472.5000      	21164.0212    	5104.18164    
473.0000      	21141.6490    	5303.27295    
473.5000      	21119.3242    	5320.27295    
474.0000      	21097.0464    	5982.45459    
474.5000      	21074.8156    	5952.09082    
475.0000      	21052.6316    	5861.27295    
475.5000      	21030.4942    	6641.18164    
476.0000      	21008.4034    	6773.72705    
476.5000      	20986.3589    	7013.63623    
477.0000      	20964.3606    	7458.09082    
477.5000      	20942.4084    	7883.63623    
478.0000      	20920.5021    	8369.63672    
478.5000      	20898.6416    	8694.27246    
479.0000      	20876.8267    	9038.00000    
479.5000      	20855.0574    	9293.00000    
480.0000      	20833.3333    	9830.18164    
480.5000      	20811.6545    	10336.00000   
481.0000      	20790.0208    	10961.72754   
481.5000      	20768.4320    	11147.09082   
482.0000      	20746.8880    	11557.54590   
482.5000      	20725.3886    	12565.45410   
483.0000      	20703.9337    	12931.54590   
483.5000      	20682.5233    	13704.27246   
484.0000      	20661.1570    	14260.18164   
484.5000      	20639.8349    	14672.27246   
485.0000      	20618.5567    	15081.18164   
485.5000      	20597.3223    	15973.18164   
486.0000      	20576.1317    	16587.36328   
486.5000      	20554.9846    	16809.54492   
487.0000      	20533.8809    	17615.72656   
487.5000      	20512.8205    	18466.00000   
488.0000      	20491.8033    	19270.81836   
488.5000      	20470.8291    	19463.18164   
489.0000      	20449.8978    	20130.72656   
489.5000      	20429.0092    	21139.90820   
490.0000      	20408.1633    	22101.36328   
490.5000      	20387.3598    	23019.00000   
491.0000      	20366.5988    	23377.81836   
491.5000      	20345.8800    	24527.90820   
492.0000      	20325.2033    	25078.36328   
492.5000      	20304.5685    	25859.27344   
493.0000      	20283.9757    	27247.54492   
493.5000      	20263.4245    	27062.27344   
494.0000      	20242.9150    	28113.81836   
494.5000      	20222.4469    	29189.45508   
495.0000      	20202.0202    	29900.81836   
495.5000      	20181.6347    	30441.90820   
496.0000      	20161.2903    	31628.90820   
496.5000      	20140.9869    	32094.18164   
497.0000      	20120.7243    	32950.63672   
497.5000      	20100.5025    	33997.91016   
498.0000      	20080.3213    	34523.00000   
498.5000      	20060.1805    	35476.08984   
499.0000      	20040.0802    	36980.63672   
499.5000      	20020.0200    	37053.36328   
500.0000      	20000.0000    	37645.27344   
500.5000      	19980.0200    	38465.91016   
501.0000      	19960.0798    	39398.54688   
501.5000      	19940.1795    	39880.91016   
502.0000      	19920.3187    	40456.27344   
502.5000      	19900.4975    	41244.18359   
503.0000      	19880.7157    	41735.81641   
503.5000      	19860.9732    	42700.91016   
504.0000      	19841.2698    	43146.45313   
504.5000      	19821.6056    	43744.54688   
505.0000      	19801.9802    	43720.18359   
505.5000      	19782.3937    	44148.36328   
506.0000      	19762.8458    	44457.72656   
506.5000      	19743.3366    	44793.91016   
507.0000      	19723.8659    	45149.18359   
507.5000      	19704.4335    	45283.54688   
508.0000      	19685.0394    	45331.18359   
508.5000      	19665.6834    	45291.08984   
509.0000      	19646.3654    	45189.36328   
509.5000      	19627.0854    	45166.27344   
510.0000      	19607.8431    	45240.00000   
510.5000      	19588.6386    	44491.18359   
511.0000      	19569.4716    	44298.63672   
511.5000      	19550.3421    	44264.00000   
512.0000      	19531.2500    	43961.36328   
512.5000      	19512.1951    	42542.91016   
513.0000      	19493.1774    	42160.45313   
513.5000      	19474.1967    	41580.63672   
514.0000      	19455.2529    	40973.63672   
514.5000      	19436.3460    	39943.45313   
515.0000      	19417.4757    	38985.72656   
515.5000      	19398.6421    	38915.72656   
516.0000      	19379.8450    	37708.45313   
516.5000      	19361.0842    	36893.81641   
517.0000      	19342.3598    	35896.54688   
517.5000      	19323.6715    	34850.00000   
518.0000      	19305.0193    	34108.36328   
518.5000      	19286.4031    	33034.18359   
519.0000      	19267.8227    	31722.36328   
519.5000      	19249.2782    	30916.90820   
520.0000      	19230.7692    	29782.54492   
520.5000      	19212.2959    	29262.09180   
521.0000      	19193.8580    	28211.81836   
521.5000      	19175.4554    	27029.72656   
522.0000      	19157.0881    	26392.09180   
522.5000      	19138.7560    	25397.54492   
523.0000      	19120.4589    	24349.90820   
523.5000      	19102.1968    	23623.72656   
524.0000      	19083.9695    	22789.54492   
524.5000      	19065.7769    	22037.63672   
525.0000      	19047.6190    	21497.72656   
525.5000      	19029.4957    	20340.18164   
526.0000      	19011.4068    	19975.36328   
526.5000      	18993.3523    	19863.72656   
527.0000      	18975.3321    	18661.81836   
527.5000      	18957.3460    	17558.63672   
528.0000      	18939.3939    	17378.00000   
528.5000      	18921.4759    	17301.09180   
529.0000      	18903.5917    	16358.27246   
529.5000      	18885.7413    	15843.18164   
530.0000      	18867.9245    	15169.90918   
530.5000      	18850.1414    	14563.00000   
531.0000      	18832.3917    	14619.81836   
531.5000      	18814.6754    	13840.00000   
532.0000      	18796.9925    	13509.09082   
532.5000      	18779.3427    	12845.63672   
533.0000      	18761.7261    	12435.63672   
533.5000      	18744.1425    	12113.09082   
534.0000      	18726.5918    	11744.27246   
534.5000      	18709.0739    	11125.90918   
535.0000      	18691.5888    	10984.36328   
535.5000      	18674.1363    	10313.72754   
536.0000      	18656.7164    	10479.00000   
536.5000      	18639.3290    	9805.72754    
537.0000      	18621.9739    	9547.90918    
537.5000      	18604.6512    	9234.00000    
538.0000      	18587.3606    	8752.90918    
538.5000      	18570.1021    	8535.81836    
539.0000      	18552.8757    	8234.27246    
539.5000      	18535.6812    	8085.27295    
540.0000      	18518.5185    	7479.72705    
540.5000      	18501.3876    	7348.00000    
541.0000      	18484.2884    	7427.45459    
541.5000      	18467.2207    	6940.72705    
542.0000      	18450.1845    	6796.09082    
542.5000      	18433.1797    	6303.72705    
543.0000      	18416.2063    	6354.81836    
543.5000      	18399.2640    	6236.72705    
544.0000      	18382.3529    	5880.09082    
544.5000      	18365.4729    	5599.18164    
545.0000      	18348.6239    	5803.36377    
545.5000      	18331.8057    	5370.54541    
546.0000      	18315.0183    	5537.36377    
546.5000      	18298.2617    	5071.81836    
547.0000      	18281.5356    	4896.72705    
547.5000      	18264.8402    	4857.81836    
548.0000      	18248.1752    	4819.63623    
548.5000      	18231.5406    	4488.09082    
549.0000      	18214.9362    	4624.63623    
549.5000      	18198.3621    	4523.00000    
550.0000      	18181.8182    	4235.90918    
550.5000      	18165.3043    	4279.00000    
551.0000      	18148.8203    	3903.45459    
551.5000      	18132.3663    	4050.72729    
552.0000      	18115.9420    	3792.00000    
552.5000      	18099.5475    	3768.18188    
553.0000      	18083.1826    	3588.36353    
553.5000      	18066.8473    	4216.18164    
554.0000      	18050.5415    	3895.27271    
554.5000      	18034.2651    	3632.81812    
555.0000      	18018.0180    	3388.18188    
555.5000      	18001.8002    	3404.00000    
556.0000      	17985.6115    	3266.36353    
556.5000      	17969.4519    	3188.27271    
557.0000      	17953.3214    	3280.90918    
557.5000      	17937.2197    	3263.81812    
558.0000      	17921.1470    	3267.09082    
558.5000      	17905.1030    	3198.45459    
559.0000      	17889.0877    	3204.45459    
559.5000      	17873.1010    	3563.90918    
560.0000      	17857.1429    	3368.27271    
560.5000      	17841.2132    	3049.36353    
561.0000      	17825.3119    	3272.36353    
561.5000      	17809.4390    	2825.36353    
562.0000      	17793.5943    	3149.18188    
562.5000      	17777.7778    	3161.27271    
563.0000      	17761.9893    	3031.00000    
563.5000      	17746.2289    	2772.72729    
