Unit Serial No : 240-LV0P465-EU
Integration Time : 249 ms
Time Average: 11
Binning Average: 0
FFT Smoothing: 0%
Project Name : Project Name
Sample Name : Sample Name
Measurement No : 1
Measurement Time : 09/18/2007   09:33:19

Wavelength(nm)	Wavenumber(1/cm)	Intensity(Counts)
350.0000      	28571.4286    	2956.54541    
350.5000      	28530.6705    	2910.72729    
351.0000      	28490.0285    	2838.81812    
351.5000      	28449.5021    	2895.18188    
352.0000      	28409.0909    	2767.90918    
352.5000      	28368.7943    	2797.45459    
353.0000      	28328.6119    	2662.09082    
353.5000      	28288.5431    	2868.45459    
354.0000      	28248.5876    	2517.90918    
354.5000      	28208.7447    	2502.36353    
355.0000      	28169.0141    	2651.36353    
355.5000      	28129.3952    	2769.81812    
356.0000      	28089.8876    	2364.81812    
356.5000      	28050.4909    	2617.81812    
357.0000      	28011.2045    	2529.09082    
357.5000      	27972.0280    	2601.27271    
358.0000      	27932.9609    	2662.63647    
358.5000      	27894.0028    	3186.54541    
359.0000      	27855.1532    	2632.63647    
359.5000      	27816.4117    	2763.18188    
360.0000      	27777.7778    	2629.72729    
360.5000      	27739.2510    	2764.72729    
361.0000      	27700.8310    	2729.27271    
361.5000      	27662.5173    	3041.36353    
362.0000      	27624.3094    	2788.81812    
362.5000      	27586.2069    	2939.09082    
363.0000      	27548.2094    	2940.90918    
363.5000      	27510.3164    	2552.54541    
364.0000      	27472.5275    	2309.09082    
364.5000      	27434.8422    	2497.90918    
365.0000      	27397.2603    	2611.09082    
365.5000      	27359.7811    	2787.90918    
366.0000      	27322.4044    	2798.27271    
366.5000      	27285.1296    	2741.36353    
367.0000      	27247.9564    	2707.72729    
367.5000      	27210.8844    	3079.00000    
368.0000      	27173.9130    	2709.27271    
368.5000      	27137.0421    	3100.45459    
369.0000      	27100.2710    	2692.63647    
369.5000      	27063.5995    	2653.63647    
370.0000      	27027.0270    	3094.27271    
370.5000      	26990.5533    	2469.45459    
371.0000      	26954.1779    	2781.81812    
371.5000      	26917.9004    	2544.72729    
372.0000      	26881.7204    	2594.36353    
372.5000      	26845.6376    	2812.00000    
373.0000      	26809.6515    	2613.90918    
373.5000      	26773.7617    	2824.90918    
374.0000      	26737.9679    	3124.90918    
374.5000      	26702.2697    	2709.09082    
375.0000      	26666.6667    	2593.45459    
375.5000      	26631.1585    	2741.36353    
376.0000      	26595.7447    	2726.81812    
376.5000      	26560.4250    	2538.90918    
377.0000      	26525.1989    	2731.72729    
377.5000      	26490.0662    	2754.18188    
378.0000      	26455.0265    	2668.00000    
378.5000      	26420.0793    	2725.18188    
379.0000      	26385.2243    	2747.27271    
379.5000      	26350.4611    	2719.54541    
380.0000      	26315.7895    	2581.45459    
380.5000      	26281.2089    	2672.36353    
381.0000      	26246.7192    	2683.18188    
381.5000      	26212.3198    	2533.45459    
382.0000      	26178.0105    	2695.54541    
382.5000      	26143.7908    	2846.36353    
383.0000      	26109.6606    	2870.36353    
383.5000      	26075.6193    	2617.72729    
384.0000      	26041.6667    	3121.54541    
384.5000      	26007.8023    	2637.27271    
385.0000      	25974.0260    	2647.45459    
385.5000      	25940.3372    	2556.54541    
386.0000      	25906.7358    	2442.90918    
386.5000      	25873.2212    	2663.09082    
387.0000      	25839.7933    	2786.90918    
387.5000      	25806.4516    	2596.27271    
388.0000      	25773.1959    	2816.09082    
388.5000      	25740.0257    	2717.90918    
389.0000      	25706.9409    	2633.63647    
389.5000      	25673.9409    	2783.81812    
390.0000      	25641.0256    	2675.18188    
390.5000      	25608.1946    	2652.63647    
391.0000      	25575.4476    	2719.63647    
391.5000      	25542.7842    	3001.09082    
392.0000      	25510.2041    	2583.72729    
392.5000      	25477.7070    	2616.54541    
393.0000      	25445.2926    	2885.81812    
393.5000      	25412.9606    	2513.81812    
394.0000      	25380.7107    	3017.45459    
394.5000      	25348.5425    	2515.27271    
395.0000      	25316.4557    	2805.45459    
395.5000      	25284.4501    	2714.27271    
396.0000      	25252.5253    	3055.45459    
396.5000      	25220.6810    	2757.00000    
397.0000      	25188.9169    	2858.27271    
397.5000      	25157.2327    	2833.45459    
398.0000      	25125.6281    	2774.81812    
398.5000      	25094.1029    	2591.18188    
399.0000      	25062.6566    	2869.18188    
399.5000      	25031.2891    	3038.90918    
400.0000      	25000.0000    	2886.00000    
400.5000      	24968.7890    	2652.63647    
401.0000      	24937.6559    	2633.81812    
401.5000      	24906.6002    	2852.27271    
402.0000      	24875.6219    	2892.81812    
402.5000      	24844.7205    	2827.90918    
403.0000      	24813.8958    	2439.36353    
403.5000      	24783.1475    	2691.90918    
404.0000      	24752.4752    	2751.09082    
404.5000      	24721.8789    	3014.18188    
405.0000      	24691.3580    	2772.36353    
405.5000      	24660.9125    	2662.09082    
406.0000      	24630.5419    	2588.90918    
406.5000      	24600.2460    	2537.72729    
407.0000      	24570.0246    	2807.54541    
407.5000      	24539.8773    	2553.00000    
408.0000      	24509.8039    	2486.00000    
408.5000      	24479.8042    	2526.45459    
409.0000      	24449.8778    	2484.63647    
409.5000      	24420.0244    	2726.36353    
410.0000      	24390.2439    	2716.27271    
410.5000      	24360.5359    	2860.81812    
411.0000      	24330.9002    	2790.36353    
411.5000      	24301.3366    	2776.81812    
412.0000      	24271.8447    	2914.45459    
412.5000      	24242.4242    	2573.63647    
413.0000      	24213.0751    	2876.09082    
413.5000      	24183.7969    	2747.36353    
414.0000      	24154.5894    	2625.81812    
414.5000      	24125.4524    	2535.63647    
415.0000      	24096.3855    	2422.63647    
415.5000      	24067.3887    	2499.72729    
416.0000      	24038.4615    	2794.00000    
416.5000      	24009.6038    	2792.18188    
417.0000      	23980.8153    	2572.54541    
417.5000      	23952.0958    	2457.36353    
418.0000      	23923.4450    	2811.36353    
418.5000      	23894.8626    	2688.36353    
419.0000      	23866.3484    	2728.00000    
419.5000      	23837.9023    	2527.45459    
420.0000      	23809.5238    	2692.54541    
420.5000      	23781.2128    	2621.36353    
421.0000      	23752.9691    	2605.00000    
421.5000      	23724.7924    	2578.81812    
422.0000      	23696.6825    	2769.36353    
422.5000      	23668.6391    	2672.81812    
423.0000      	23640.6619    	2759.00000    
423.5000      	23612.7509    	2515.54541    
424.0000      	23584.9057    	2739.72729    
424.5000      	23557.1260    	2928.72729    
425.0000      	23529.4118    	2573.63647    
425.5000      	23501.7626    	2362.63647    
426.0000      	23474.1784    	2563.27271    
426.5000      	23446.6589    	2559.09082    
427.0000      	23419.2037    	2652.00000    
427.5000      	23391.8129    	2672.81812    
428.0000      	23364.4860    	2559.81812    
428.5000      	23337.2229    	2591.27271    
429.0000      	23310.0233    	3081.45459    
429.5000      	23282.8871    	2789.63647    
430.0000      	23255.8140    	2664.72729    
430.5000      	23228.8037    	2690.81812    
431.0000      	23201.8561    	3024.00000    
431.5000      	23174.9710    	2565.63647    
432.0000      	23148.1481    	2430.63647    
432.5000      	23121.3873    	2592.00000    
433.0000      	23094.6882    	2388.09082    
433.5000      	23068.0507    	2616.18188    
434.0000      	23041.4747    	2982.63647    
434.5000      	23014.9597    	2535.27271    
435.0000      	22988.5057    	2570.00000    
435.5000      	22962.1125    	3029.63647    
436.0000      	22935.7798    	2771.90918    
436.5000      	22909.5074    	2544.63647    
437.0000      	22883.2952    	2522.54541    
437.5000      	22857.1429    	2576.63647    
438.0000      	22831.0502    	2444.90918    
438.5000      	22805.0171    	2385.09082    
439.0000      	22779.0433    	2430.45459    
439.5000      	22753.1286    	2301.27271    
440.0000      	22727.2727    	3065.27271    
440.5000      	22701.4756    	2796.90918    
441.0000      	22675.7370    	3152.54541    
441.5000      	22650.0566    	2503.90918    
442.0000      	22624.4344    	2487.18188    
442.5000      	22598.8701    	2988.27271    
443.0000      	22573.3634    	2742.09082    
443.5000      	22547.9143    	2750.54541    
444.0000      	22522.5225    	2754.45459    
444.5000      	22497.1879    	2736.00000    
445.0000      	22471.9101    	2808.00000    
445.5000      	22446.6891    	2283.18188    
446.0000      	22421.5247    	2416.00000    
446.5000      	22396.4166    	2733.36353    
447.0000      	22371.3647    	2513.90918    
447.5000      	22346.3687    	2689.45459    
448.0000      	22321.4286    	2722.18188    
448.5000      	22296.5440    	2454.72729    
449.0000      	22271.7149    	2700.45459    
449.5000      	22246.9410    	3026.36353    
450.0000      	22222.2222    	2633.63647    
450.5000      	22197.5583    	2845.63647    
451.0000      	22172.9490    	2842.00000    
451.5000      	22148.3942    	2764.90918    
452.0000      	22123.8938    	2596.72729    
452.5000      	22099.4475    	2539.90918    
453.0000      	22075.0552    	2589.09082    
453.5000      	22050.7166    	2510.00000    
454.0000      	22026.4317    	2397.54541    
454.5000      	22002.2002    	2446.00000    
455.0000      	21978.0220    	2605.63647    
455.5000      	21953.8968    	2664.63647    
456.0000      	21929.8246    	2676.90918    
456.5000      	21905.8050    	2765.54541    
457.0000      	21881.8381    	2958.36353    
457.5000      	21857.9235    	2858.00000    
458.0000      	21834.0611    	2688.72729    
458.5000      	21810.2508    	2458.63647    
459.0000      	21786.4924    	3060.27271    
459.5000      	21762.7856    	2628.27271    
460.0000      	21739.1304    	2841.36353    
460.5000      	21715.5266    	2577.90918    
461.0000      	21691.9740    	2650.45459    
461.5000      	21668.4724    	2974.54541    
462.0000      	21645.0216    	2841.63647    
462.5000      	21621.6216    	2466.63647    
463.0000      	21598.2721    	2666.63647    
463.5000      	21574.9730    	2550.36353    
464.0000      	21551.7241    	2492.00000    
464.5000      	21528.5253    	2757.18188    
465.0000      	21505.3763    	2800.90918    
465.5000      	21482.2771    	2501.90918    
466.0000      	21459.2275    	3492.72729    
466.5000      	21436.2272    	2303.36353    
467.0000      	21413.2762    	2518.54541    
467.5000      	21390.3743    	2865.18188    
468.0000      	21367.5214    	2606.18188    
468.5000      	21344.7172    	2561.00000    
469.0000      	21321.9616    	3034.45459    
469.5000      	21299.2545    	2732.54541    
470.0000      	21276.5957    	2521.63647    
470.5000      	21253.9851    	2911.81812    
471.0000      	21231.4225    	2791.45459    
471.5000      	21208.9077    	2427.81812    
472.0000      	21186.4407    	2312.45459    
472.5000      	21164.0212    	2525.00000    
473.0000      	21141.6490    	2657.72729    
473.5000      	21119.3242    	2477.63647    
474.0000      	21097.0464    	2871.09082    
474.5000      	21074.8156    	2648.63647    
475.0000      	21052.6316    	2262.09082    
475.5000      	21030.4942    	2601.54541    
476.0000      	21008.4034    	2474.09082    
476.5000      	20986.3589    	2494.27271    
477.0000      	20964.3606    	2636.45459    
477.5000      	20942.4084    	2749.90918    
478.0000      	20920.5021    	2805.36353    
478.5000      	20898.6416    	2696.18188    
479.0000      	20876.8267    	2584.45459    
479.5000      	20855.0574    	2569.09082    
480.0000      	20833.3333    	2517.81812    
480.5000      	20811.6545    	2572.27271    
481.0000      	20790.0208    	2670.90918    
481.5000      	20768.4320    	2430.45459    
482.0000      	20746.8880    	2537.09082    
482.5000      	20725.3886    	2859.54541    
483.0000      	20703.9337    	2650.18188    
483.5000      	20682.5233    	2737.00000    
484.0000      	20661.1570    	2729.45459    
484.5000      	20639.8349    	2602.54541    
485.0000      	20618.5567    	2616.45459    
485.5000      	20597.3223    	2861.81812    
486.0000      	20576.1317    	2891.18188    
486.5000      	20554.9846    	2352.18188    
487.0000      	20533.8809    	2504.09082    
487.5000      	20512.8205    	2546.54541    
488.0000      	20491.8033    	3038.36353    
488.5000      	20470.8291    	2507.00000    
489.0000      	20449.8978    	2490.54541    
489.5000      	20429.0092    	2782.36353    
490.0000      	20408.1633    	2741.00000    
490.5000      	20387.3598    	2645.00000    
491.0000      	20366.5988    	2594.09082    
491.5000      	20345.8800    	2931.45459    
492.0000      	20325.2033    	2617.90918    
492.5000      	20304.5685    	2561.72729    
493.0000      	20283.9757    	2974.81812    
493.5000      	20263.4245    	2380.63647    
494.0000      	20242.9150    	2652.45459    
494.5000      	20222.4469    	2758.72729    
495.0000      	20202.0202    	2695.18188    
495.5000      	20181.6347    	2450.81812    
496.0000      	20161.2903    	2746.09082    
496.5000      	20140.9869    	2640.54541    
497.0000      	20120.7243    	2585.00000    
497.5000      	20100.5025    	2948.54541    
498.0000      	20080.3213    	2574.45459    
498.5000      	20060.1805    	2458.09082    
499.0000      	20040.0802    	3032.81812    
499.5000      	20020.0200    	2703.18188    
500.0000      	20000.0000    	2496.36353    
500.5000      	19980.0200    	2586.27271    
501.0000      	19960.0798    	2749.36353    
501.5000      	19940.1795    	2527.81812    
502.0000      	19920.3187    	2663.09082    
502.5000      	19900.4975    	2477.00000    
503.0000      	19880.7157    	2303.63647    
503.5000      	19860.9732    	2483.18188    
504.0000      	19841.2698    	2494.36353    
504.5000      	19821.6056    	2791.81812    
505.0000      	19801.9802    	2599.09082    
505.5000      	19782.3937    	2481.72729    
506.0000      	19762.8458    	2522.45459    
506.5000      	19743.3366    	2337.72729    
507.0000      	19723.8659    	2591.54541    
507.5000      	19704.4335    	2746.09082    
508.0000      	19685.0394    	2828.18188    
508.5000      	19665.6834    	2334.90918    
509.0000      	19646.3654    	2558.27271    
509.5000      	19627.0854    	2998.72729    
510.0000      	19607.8431    	3236.00000    
510.5000      	19588.6386    	2619.45459    
511.0000      	19569.4716    	2527.63647    
511.5000      	19550.3421    	2805.81812    
512.0000      	19531.2500    	2941.45459    
512.5000      	19512.1951    	2383.00000    
513.0000      	19493.1774    	2443.72729    
513.5000      	19474.1967    	2437.36353    
514.0000      	19455.2529    	2640.63647    
514.5000      	19436.3460    	2488.18188    
515.0000      	19417.4757    	2455.72729    
515.5000      	19398.6421    	2815.09082    
516.0000      	19379.8450    	2434.09082    
516.5000      	19361.0842    	2565.45459    
517.0000      	19342.3598    	2383.72729    
517.5000      	19323.6715    	2643.27271    
518.0000      	19305.0193    	2403.27271    
518.5000      	19286.4031    	2331.27271    
519.0000      	19267.8227    	2261.90918    
519.5000      	19249.2782    	2488.18188    
520.0000      	19230.7692    	2461.00000    
520.5000      	19212.2959    	2492.00000    
521.0000      	19193.8580    	2595.81812    
521.5000      	19175.4554    	2463.90918    
522.0000      	19157.0881    	2608.45459    
522.5000      	19138.7560    	2630.27271    
523.0000      	19120.4589    	2667.18188    
523.5000      	19102.1968    	2503.09082    
524.0000      	19083.9695    	2544.00000    
524.5000      	19065.7769    	2526.90918    
525.0000      	19047.6190    	2644.45459    
525.5000      	19029.4957    	2350.63647    
526.0000      	19011.4068    	2321.27271    
526.5000      	18993.3523    	2913.36353    
527.0000      	18975.3321    	2422.09082    
527.5000      	18957.3460    	2193.72729    
528.0000      	18939.3939    	2566.45459    
528.5000      	18921.4759    	2732.18188    
529.0000      	18903.5917    	2477.27271    
529.5000      	18885.7413    	2601.81812    
530.0000      	18867.9245    	2499.54541    
530.5000      	18850.1414    	2379.63647    
531.0000      	18832.3917    	2682.54541    
531.5000      	18814.6754    	2567.81812    
532.0000      	18796.9925    	2671.18188    
532.5000      	18779.3427    	2528.36353    
533.0000      	18761.7261    	2560.09082    
533.5000      	18744.1425    	2470.18188    
534.0000      	18726.5918    	2652.00000    
534.5000      	18709.0739    	2475.09082    
535.0000      	18691.5888    	2798.90918    
535.5000      	18674.1363    	2441.90918    
536.0000      	18656.7164    	2703.09082    
536.5000      	18639.3290    	2518.63647    
537.0000      	18621.9739    	2537.72729    
537.5000      	18604.6512    	2528.18188    
538.0000      	18587.3606    	2492.72729    
538.5000      	18570.1021    	2450.18188    
539.0000      	18552.8757    	2539.09082    
539.5000      	18535.6812    	2669.90918    
540.0000      	18518.5185    	2328.45459    
540.5000      	18501.3876    	2464.63647    
541.0000      	18484.2884    	2687.27271    
541.5000      	18467.2207    	2556.45459    
542.0000      	18450.1845    	2712.45459    
542.5000      	18433.1797    	2363.36353    
543.0000      	18416.2063    	2662.72729    
543.5000      	18399.2640    	2687.72729    
544.0000      	18382.3529    	2487.63647    
544.5000      	18365.4729    	2419.81812    
545.0000      	18348.6239    	2803.18188    
545.5000      	18331.8057    	2575.72729    
546.0000      	18315.0183    	2859.45459    
546.5000      	18298.2617    	2518.09082    
547.0000      	18281.5356    	2537.54541    
547.5000      	18264.8402    	2579.00000    
548.0000      	18248.1752    	2595.36353    
548.5000      	18231.5406    	2413.09082    
549.0000      	18214.9362    	2765.90918    
549.5000      	18198.3621    	2774.18188    
550.0000      	18181.8182    	2518.90918    
550.5000      	18165.3043    	2626.18188    
551.0000      	18148.8203    	2329.09082    
551.5000      	18132.3663    	2610.72729    
552.0000      	18115.9420    	2431.36353    
552.5000      	18099.5475    	2505.72729    
553.0000      	18083.1826    	2353.18188    
553.5000      	18066.8473    	3104.90918    
554.0000      	18050.5415    	2787.63647    
554.5000      	18034.2651    	2600.81812    
555.0000      	18018.0180    	2407.81812    
555.5000      	18001.8002    	2462.09082    
556.0000      	17985.6115    	2345.81812    
556.5000      	17969.4519    	2321.27271    
557.0000      	17953.3214    	2486.72729    
557.5000      	17937.2197    	2522.54541    
558.0000      	17921.1470    	2559.00000    
558.5000      	17905.1030    	2502.45459    
559.0000      	17889.0877    	2560.90918    
559.5000      	17873.1010    	2960.27271    
560.0000      	17857.1429    	2788.00000    
560.5000      	17841.2132    	2539.09082    
561.0000      	17825.3119    	2765.63647    
561.5000      	17809.4390    	2296.90918    
562.0000      	17793.5943    	2719.27271    
562.5000      	17777.7778    	2713.72729    
563.0000      	17761.9893    	2578.63647    
563.5000      	17746.2289    	2364.45459    
