Unit Serial No : 240-LV0P465-EU
Integration Time : 249 ms
Time Average: 11
Binning Average: 0
FFT Smoothing: 0%
Project Name : Project Name
Sample Name : Sample Name
Measurement No : 1
Measurement Time : 09/18/2007   09:32:35

Wavelength(nm)	Wavenumber(1/cm)	Intensity(Counts)
350.0000      	28571.4286    	3043.09082    
350.5000      	28530.6705    	2982.54541    
351.0000      	28490.0285    	2928.45459    
351.5000      	28449.5021    	2997.63647    
352.0000      	28409.0909    	2889.36353    
352.5000      	28368.7943    	2896.63647    
353.0000      	28328.6119    	2769.27271    
353.5000      	28288.5431    	2974.18188    
354.0000      	28248.5876    	2608.27271    
354.5000      	28208.7447    	2605.45459    
355.0000      	28169.0141    	2776.45459    
355.5000      	28129.3952    	2871.27271    
356.0000      	28089.8876    	2438.27271    
356.5000      	28050.4909    	2671.63647    
357.0000      	28011.2045    	2629.27271    
357.5000      	27972.0280    	2717.36353    
358.0000      	27932.9609    	2753.18188    
358.5000      	27894.0028    	3274.63647    
359.0000      	27855.1532    	2715.81812    
359.5000      	27816.4117    	2860.36353    
360.0000      	27777.7778    	2747.81812    
360.5000      	27739.2510    	2854.72729    
361.0000      	27700.8310    	2830.45459    
361.5000      	27662.5173    	3136.63647    
362.0000      	27624.3094    	2853.90918    
362.5000      	27586.2069    	3023.90918    
363.0000      	27548.2094    	3039.18188    
363.5000      	27510.3164    	2653.90918    
364.0000      	27472.5275    	2424.90918    
364.5000      	27434.8422    	2591.54541    
365.0000      	27397.2603    	2703.72729    
365.5000      	27359.7811    	2900.72729    
366.0000      	27322.4044    	2929.54541    
366.5000      	27285.1296    	2812.27271    
367.0000      	27247.9564    	2778.81812    
367.5000      	27210.8844    	3165.18188    
368.0000      	27173.9130    	2761.90918    
368.5000      	27137.0421    	3163.45459    
369.0000      	27100.2710    	2798.54541    
369.5000      	27063.5995    	2777.18188    
370.0000      	27027.0270    	3189.18188    
370.5000      	26990.5533    	2548.54541    
371.0000      	26954.1779    	2899.27271    
371.5000      	26917.9004    	2665.63647    
372.0000      	26881.7204    	2715.36353    
372.5000      	26845.6376    	2963.00000    
373.0000      	26809.6515    	2714.18188    
373.5000      	26773.7617    	2935.09082    
374.0000      	26737.9679    	3240.00000    
374.5000      	26702.2697    	2839.45459    
375.0000      	26666.6667    	2744.54541    
375.5000      	26631.1585    	2893.63647    
376.0000      	26595.7447    	2830.45459    
376.5000      	26560.4250    	2634.27271    
377.0000      	26525.1989    	2853.81812    
377.5000      	26490.0662    	2876.90918    
378.0000      	26455.0265    	2800.00000    
378.5000      	26420.0793    	2807.09082    
379.0000      	26385.2243    	2818.81812    
379.5000      	26350.4611    	2824.63647    
380.0000      	26315.7895    	2688.54541    
380.5000      	26281.2089    	2770.36353    
381.0000      	26246.7192    	2779.36353    
381.5000      	26212.3198    	2630.63647    
382.0000      	26178.0105    	2786.81812    
382.5000      	26143.7908    	2903.90918    
383.0000      	26109.6606    	2957.63647    
383.5000      	26075.6193    	2717.36353    
384.0000      	26041.6667    	3216.72729    
384.5000      	26007.8023    	2710.81812    
385.0000      	25974.0260    	2709.45459    
385.5000      	25940.3372    	2651.72729    
386.0000      	25906.7358    	2542.54541    
386.5000      	25873.2212    	2779.18188    
387.0000      	25839.7933    	2821.45459    
387.5000      	25806.4516    	2658.81812    
388.0000      	25773.1959    	2881.36353    
388.5000      	25740.0257    	2830.18188    
389.0000      	25706.9409    	2754.72729    
389.5000      	25673.9409    	2917.72729    
390.0000      	25641.0256    	2775.63647    
390.5000      	25608.1946    	2775.45459    
391.0000      	25575.4476    	2793.36353    
391.5000      	25542.7842    	3090.09082    
392.0000      	25510.2041    	2682.27271    
392.5000      	25477.7070    	2679.36353    
393.0000      	25445.2926    	2960.36353    
393.5000      	25412.9606    	2600.45459    
394.0000      	25380.7107    	3113.90918    
394.5000      	25348.5425    	2660.18188    
395.0000      	25316.4557    	2900.09082    
395.5000      	25284.4501    	2828.00000    
396.0000      	25252.5253    	3113.90918    
396.5000      	25220.6810    	2832.90918    
397.0000      	25188.9169    	2936.09082    
397.5000      	25157.2327    	2910.09082    
398.0000      	25125.6281    	2869.36353    
398.5000      	25094.1029    	2689.27271    
399.0000      	25062.6566    	2932.81812    
399.5000      	25031.2891    	3119.18188    
400.0000      	25000.0000    	2991.18188    
400.5000      	24968.7890    	2789.09082    
401.0000      	24937.6559    	2759.36353    
401.5000      	24906.6002    	2975.63647    
402.0000      	24875.6219    	2988.09082    
402.5000      	24844.7205    	2922.63647    
403.0000      	24813.8958    	2567.45459    
403.5000      	24783.1475    	2848.09082    
404.0000      	24752.4752    	2891.81812    
404.5000      	24721.8789    	3146.72729    
405.0000      	24691.3580    	2872.90918    
405.5000      	24660.9125    	2738.81812    
406.0000      	24630.5419    	2697.00000    
406.5000      	24600.2460    	2678.27271    
407.0000      	24570.0246    	2882.54541    
407.5000      	24539.8773    	2632.90918    
408.0000      	24509.8039    	2530.27271    
408.5000      	24479.8042    	2585.18188    
409.0000      	24449.8778    	2542.63647    
409.5000      	24420.0244    	2809.09082    
410.0000      	24390.2439    	2780.00000    
410.5000      	24360.5359    	2901.18188    
411.0000      	24330.9002    	2851.63647    
411.5000      	24301.3366    	2866.00000    
412.0000      	24271.8447    	2991.54541    
412.5000      	24242.4242    	2641.09082    
413.0000      	24213.0751    	2920.72729    
413.5000      	24183.7969    	2788.18188    
414.0000      	24154.5894    	2695.54541    
414.5000      	24125.4524    	2603.72729    
415.0000      	24096.3855    	2488.09082    
415.5000      	24067.3887    	2557.45459    
416.0000      	24038.4615    	2831.45459    
416.5000      	24009.6038    	2823.09082    
417.0000      	23980.8153    	2593.36353    
417.5000      	23952.0958    	2523.09082    
418.0000      	23923.4450    	2884.54541    
418.5000      	23894.8626    	2786.72729    
419.0000      	23866.3484    	2767.36353    
419.5000      	23837.9023    	2554.81812    
420.0000      	23809.5238    	2711.27271    
420.5000      	23781.2128    	2695.09082    
421.0000      	23752.9691    	2634.72729    
421.5000      	23724.7924    	2618.63647    
422.0000      	23696.6825    	2812.18188    
422.5000      	23668.6391    	2715.72729    
423.0000      	23640.6619    	2828.27271    
423.5000      	23612.7509    	2548.90918    
424.0000      	23584.9057    	2799.18188    
424.5000      	23557.1260    	2993.36353    
425.0000      	23529.4118    	2588.63647    
425.5000      	23501.7626    	2441.09082    
426.0000      	23474.1784    	2665.63647    
426.5000      	23446.6589    	2629.90918    
427.0000      	23419.2037    	2737.81812    
427.5000      	23391.8129    	2721.36353    
428.0000      	23364.4860    	2585.36353    
428.5000      	23337.2229    	2657.09082    
429.0000      	23310.0233    	3156.72729    
429.5000      	23282.8871    	2873.36353    
430.0000      	23255.8140    	2729.18188    
430.5000      	23228.8037    	2718.27271    
431.0000      	23201.8561    	3057.00000    
431.5000      	23174.9710    	2636.72729    
432.0000      	23148.1481    	2496.18188    
432.5000      	23121.3873    	2682.81812    
433.0000      	23094.6882    	2414.18188    
433.5000      	23068.0507    	2669.18188    
434.0000      	23041.4747    	3035.00000    
434.5000      	23014.9597    	2583.63647    
435.0000      	22988.5057    	2682.45459    
435.5000      	22962.1125    	3103.90918    
436.0000      	22935.7798    	2819.27271    
436.5000      	22909.5074    	2592.09082    
437.0000      	22883.2952    	2595.27271    
437.5000      	22857.1429    	2637.63647    
438.0000      	22831.0502    	2520.45459    
438.5000      	22805.0171    	2417.54541    
439.0000      	22779.0433    	2476.45459    
439.5000      	22753.1286    	2347.27271    
440.0000      	22727.2727    	3070.09082    
440.5000      	22701.4756    	2849.54541    
441.0000      	22675.7370    	3219.72729    
441.5000      	22650.0566    	2579.27271    
442.0000      	22624.4344    	2543.90918    
442.5000      	22598.8701    	3046.54541    
443.0000      	22573.3634    	2814.63647    
443.5000      	22547.9143    	2825.18188    
444.0000      	22522.5225    	2820.36353    
444.5000      	22497.1879    	2825.72729    
445.0000      	22471.9101    	2887.27271    
445.5000      	22446.6891    	2327.90918    
446.0000      	22421.5247    	2453.09082    
446.5000      	22396.4166    	2757.00000    
447.0000      	22371.3647    	2610.36353    
447.5000      	22346.3687    	2757.27271    
448.0000      	22321.4286    	2773.36353    
448.5000      	22296.5440    	2511.54541    
449.0000      	22271.7149    	2746.54541    
449.5000      	22246.9410    	3100.90918    
450.0000      	22222.2222    	2697.09082    
450.5000      	22197.5583    	2884.00000    
451.0000      	22172.9490    	2869.36353    
451.5000      	22148.3942    	2790.00000    
452.0000      	22123.8938    	2612.36353    
452.5000      	22099.4475    	2610.00000    
453.0000      	22075.0552    	2656.09082    
453.5000      	22050.7166    	2565.09082    
454.0000      	22026.4317    	2437.63647    
454.5000      	22002.2002    	2464.90918    
455.0000      	21978.0220    	2647.63647    
455.5000      	21953.8968    	2722.63647    
456.0000      	21929.8246    	2713.72729    
456.5000      	21905.8050    	2784.00000    
457.0000      	21881.8381    	2968.09082    
457.5000      	21857.9235    	2858.18188    
458.0000      	21834.0611    	2710.54541    
458.5000      	21810.2508    	2509.36353    
459.0000      	21786.4924    	3073.90918    
459.5000      	21762.7856    	2653.18188    
460.0000      	21739.1304    	2862.27271    
460.5000      	21715.5266    	2668.36353    
461.0000      	21691.9740    	2699.18188    
461.5000      	21668.4724    	3025.27271    
462.0000      	21645.0216    	2876.45459    
462.5000      	21621.6216    	2522.90918    
463.0000      	21598.2721    	2688.81812    
463.5000      	21574.9730    	2602.54541    
464.0000      	21551.7241    	2555.09082    
464.5000      	21528.5253    	2800.63647    
465.0000      	21505.3763    	2839.45459    
465.5000      	21482.2771    	2517.27271    
466.0000      	21459.2275    	3767.18188    
466.5000      	21436.2272    	2393.54541    
467.0000      	21413.2762    	2580.27271    
467.5000      	21390.3743    	2896.18188    
468.0000      	21367.5214    	2637.36353    
468.5000      	21344.7172    	2635.00000    
469.0000      	21321.9616    	3028.63647    
469.5000      	21299.2545    	2776.36353    
470.0000      	21276.5957    	2562.54541    
470.5000      	21253.9851    	2957.81812    
471.0000      	21231.4225    	2811.63647    
471.5000      	21208.9077    	2441.36353    
472.0000      	21186.4407    	2398.09082    
472.5000      	21164.0212    	2596.27271    
473.0000      	21141.6490    	2735.27271    
473.5000      	21119.3242    	2553.63647    
474.0000      	21097.0464    	2918.00000    
474.5000      	21074.8156    	2680.63647    
475.0000      	21052.6316    	2303.18188    
475.5000      	21030.4942    	2686.27271    
476.0000      	21008.4034    	2528.00000    
476.5000      	20986.3589    	2584.18188    
477.0000      	20964.3606    	2689.72729    
477.5000      	20942.4084    	2790.81812    
478.0000      	20920.5021    	2852.63647    
478.5000      	20898.6416    	2755.18188    
479.0000      	20876.8267    	2643.27271    
479.5000      	20855.0574    	2615.18188    
480.0000      	20833.3333    	2570.00000    
480.5000      	20811.6545    	2616.54541    
481.0000      	20790.0208    	2701.90918    
481.5000      	20768.4320    	2480.09082    
482.0000      	20746.8880    	2593.00000    
482.5000      	20725.3886    	2923.81812    
483.0000      	20703.9337    	2667.36353    
483.5000      	20682.5233    	2742.72729    
484.0000      	20661.1570    	2777.00000    
484.5000      	20639.8349    	2629.36353    
485.0000      	20618.5567    	2669.36353    
485.5000      	20597.3223    	2862.72729    
486.0000      	20576.1317    	2889.45459    
486.5000      	20554.9846    	2376.72729    
487.0000      	20533.8809    	2577.54541    
487.5000      	20512.8205    	2588.18188    
488.0000      	20491.8033    	3059.72729    
488.5000      	20470.8291    	2542.27271    
489.0000      	20449.8978    	2517.81812    
489.5000      	20429.0092    	2785.63647    
490.0000      	20408.1633    	2785.72729    
490.5000      	20387.3598    	2680.45459    
491.0000      	20366.5988    	2619.72729    
491.5000      	20345.8800    	2963.81812    
492.0000      	20325.2033    	2634.54541    
492.5000      	20304.5685    	2577.18188    
493.0000      	20283.9757    	3043.45459    
493.5000      	20263.4245    	2431.45459    
494.0000      	20242.9150    	2695.45459    
494.5000      	20222.4469    	2777.54541    
495.0000      	20202.0202    	2717.36353    
495.5000      	20181.6347    	2466.36353    
496.0000      	20161.2903    	2793.00000    
496.5000      	20140.9869    	2691.27271    
497.0000      	20120.7243    	2594.09082    
497.5000      	20100.5025    	2961.63647    
498.0000      	20080.3213    	2597.90918    
498.5000      	20060.1805    	2497.72729    
499.0000      	20040.0802    	3058.00000    
499.5000      	20020.0200    	2749.63647    
500.0000      	20000.0000    	2518.27271    
500.5000      	19980.0200    	2641.27271    
501.0000      	19960.0798    	2778.36353    
501.5000      	19940.1795    	2545.18188    
502.0000      	19920.3187    	2672.27271    
502.5000      	19900.4975    	2488.45459    
503.0000      	19880.7157    	2323.27271    
503.5000      	19860.9732    	2509.09082    
504.0000      	19841.2698    	2531.18188    
504.5000      	19821.6056    	2800.27271    
505.0000      	19801.9802    	2643.54541    
505.5000      	19782.3937    	2502.45459    
506.0000      	19762.8458    	2591.27271    
506.5000      	19743.3366    	2353.18188    
507.0000      	19723.8659    	2611.81812    
507.5000      	19704.4335    	2761.00000    
508.0000      	19685.0394    	2840.36353    
508.5000      	19665.6834    	2382.36353    
509.0000      	19646.3654    	2591.27271    
509.5000      	19627.0854    	3010.72729    
510.0000      	19607.8431    	3209.00000    
510.5000      	19588.6386    	2625.00000    
511.0000      	19569.4716    	2537.63647    
511.5000      	19550.3421    	2779.27271    
512.0000      	19531.2500    	2958.18188    
512.5000      	19512.1951    	2435.54541    
513.0000      	19493.1774    	2456.81812    
513.5000      	19474.1967    	2453.18188    
514.0000      	19455.2529    	2643.63647    
514.5000      	19436.3460    	2539.09082    
515.0000      	19417.4757    	2473.90918    
515.5000      	19398.6421    	2830.36353    
516.0000      	19379.8450    	2472.54541    
516.5000      	19361.0842    	2577.72729    
517.0000      	19342.3598    	2442.54541    
517.5000      	19323.6715    	2718.27271    
518.0000      	19305.0193    	2481.72729    
518.5000      	19286.4031    	2389.27271    
519.0000      	19267.8227    	2303.72729    
519.5000      	19249.2782    	2534.36353    
520.0000      	19230.7692    	2519.54541    
520.5000      	19212.2959    	2543.27271    
521.0000      	19193.8580    	2652.36353    
521.5000      	19175.4554    	2498.27271    
522.0000      	19157.0881    	2618.90918    
522.5000      	19138.7560    	2639.45459    
523.0000      	19120.4589    	2709.36353    
523.5000      	19102.1968    	2506.54541    
524.0000      	19083.9695    	2605.36353    
524.5000      	19065.7769    	2540.54541    
525.0000      	19047.6190    	2640.45459    
525.5000      	19029.4957    	2359.63647    
526.0000      	19011.4068    	2372.54541    
526.5000      	18993.3523    	2959.36353    
527.0000      	18975.3321    	2503.54541    
527.5000      	18957.3460    	2216.90918    
528.0000      	18939.3939    	2572.54541    
528.5000      	18921.4759    	2761.81812    
529.0000      	18903.5917    	2537.72729    
529.5000      	18885.7413    	2627.27271    
530.0000      	18867.9245    	2554.36353    
530.5000      	18850.1414    	2433.54541    
531.0000      	18832.3917    	2717.27271    
531.5000      	18814.6754    	2597.09082    
532.0000      	18796.9925    	2733.90918    
532.5000      	18779.3427    	2558.63647    
533.0000      	18761.7261    	2579.63647    
533.5000      	18744.1425    	2489.90918    
534.0000      	18726.5918    	2670.18188    
534.5000      	18709.0739    	2509.63647    
535.0000      	18691.5888    	2817.27271    
535.5000      	18674.1363    	2492.27271    
536.0000      	18656.7164    	2761.18188    
536.5000      	18639.3290    	2534.27271    
537.0000      	18621.9739    	2592.27271    
537.5000      	18604.6512    	2631.90918    
538.0000      	18587.3606    	2560.09082    
538.5000      	18570.1021    	2515.09082    
539.0000      	18552.8757    	2577.45459    
539.5000      	18535.6812    	2719.00000    
540.0000      	18518.5185    	2374.27271    
540.5000      	18501.3876    	2523.90918    
541.0000      	18484.2884    	2758.27271    
541.5000      	18467.2207    	2613.09082    
542.0000      	18450.1845    	2758.54541    
542.5000      	18433.1797    	2410.36353    
543.0000      	18416.2063    	2701.72729    
543.5000      	18399.2640    	2743.09082    
544.0000      	18382.3529    	2558.27271    
544.5000      	18365.4729    	2500.00000    
545.0000      	18348.6239    	2887.36353    
545.5000      	18331.8057    	2642.00000    
546.0000      	18315.0183    	2935.54541    
546.5000      	18298.2617    	2590.72729    
547.0000      	18281.5356    	2606.18188    
547.5000      	18264.8402    	2696.00000    
548.0000      	18248.1752    	2714.36353    
548.5000      	18231.5406    	2495.54541    
549.0000      	18214.9362    	2741.90918    
549.5000      	18198.3621    	2800.27271    
550.0000      	18181.8182    	2576.09082    
550.5000      	18165.3043    	2682.54541    
551.0000      	18148.8203    	2372.90918    
551.5000      	18132.3663    	2645.45459    
552.0000      	18115.9420    	2454.09082    
552.5000      	18099.5475    	2549.00000    
553.0000      	18083.1826    	2392.81812    
553.5000      	18066.8473    	3151.27271    
554.0000      	18050.5415    	2830.18188    
554.5000      	18034.2651    	2646.18188    
555.0000      	18018.0180    	2437.90918    
555.5000      	18001.8002    	2504.09082    
556.0000      	17985.6115    	2413.81812    
556.5000      	17969.4519    	2416.27271    
557.0000      	17953.3214    	2528.18188    
557.5000      	17937.2197    	2551.54541    
558.0000      	17921.1470    	2577.27271    
558.5000      	17905.1030    	2464.00000    
559.0000      	17889.0877    	2606.63647    
559.5000      	17873.1010    	3020.63647    
560.0000      	17857.1429    	2842.18188    
560.5000      	17841.2132    	2577.09082    
561.0000      	17825.3119    	2779.54541    
561.5000      	17809.4390    	2387.63647    
562.0000      	17793.5943    	2741.00000    
562.5000      	17777.7778    	2763.27271    
563.0000      	17761.9893    	2661.45459    
563.5000      	17746.2289    	2438.63647    
